File: Tests de traction/Fichiers source/04_07_2016/Sample_5_250N.txt
Time (s)	Load (N)	Machine Extension (mm)	Extension from Preload (mm)
0
0,8573	0,37278	0,015236	0,0010065
1,715	1,0838	0,038055	0,023825
2,572	1,3755	0,048629	0,034399
3,429	1,7241	0,063577	0,049347
4,286	2,3606	0,085785	0,071555
5,144	2,2689	0,086855	0,072625
6,001	2,7409	0,10624	0,092012
6,858	3,1098	0,12162	0,10739
7,715	3,2919	0,1328	0,11857
8,573	3,6734	0,14867	0,13444
9,43	3,9679	0,16356	0,14933
10,29	4,3992	0,18357	0,16934
11,14	4,5125	0,19249	0,17826
12	4,7128	0,20655	0,19232
12,86	5,2183	0,22934	0,21511
13,72	5,0234	0,22952	0,21529
14,57	5,3674	0,2481	0,23387
15,43	5,6586	0,26454	0,25031
16,29	5,8401	0,27884	0,26461
17,15	6,0215	0,29215	0,27792
18	6,2317	0,30703	0,2928
18,86	6,4842	0,32375	0,30952
19,72	6,597	0,33576	0,32153
20,57	6,7266	0,34977	0,33554
21,43	7,168	0,37413	0,3599
22,29	6,8998	0,37338	0,35915
23,15	7,1547	0,39204	0,37781
24	7,3477	0,40834	0,39411
24,86	7,3348	0,4196	0,40537
25,72	7,4694	0,43389	0,41966
26,58	7,5743	0,44869	0,43446
27,43	7,7252	0,46604	0,45181
28,29	7,7208	0,4772	0,46297
29,15	7,8449	0,49212	0,47789
30	8,1755	0,51463	0,5004
30,86	7,8398	0,51479	0,50056
31,72	8,1052	0,53531	0,52108
32,58	8,2149	0,55027	0,53604
33,43	8,1416	0,56189	0,54766
34,29	8,2509	0,57624	0,56201
35,15	8,3567	0,59306	0,57883
36,01	8,4626	0,61054	0,59631
36,86	8,4021	0,62079	0,60656
37,72	8,41	0,63546	0,62123
38,58	8,5383	0,65656	0,64233
39,43	8,2593	0,66142	0,64719
40,29	8,2852	0,67804	0,66381
41,15	8,2827	0,69313	0,6789
42,01	8,088	0,70412	0,68989
42,86	8,0453	0,72027	0,70604
43,72	7,9941	0,73523	0,721
44,58	8,0536	0,75429	0,74006
45,43	7,9546	0,76417	0,74994
46,29	7,9121	0,77816	0,76393
47,15	7,9803	0,79899	0,78476
48,01	7,823	0,80719	0,79296
48,86	7,7331	0,81951	0,80528
49,72	7,7199	0,8365	0,82227
50,58	7,5577	0,849	0,83477
51,44	7,5388	0,86309	0,84886
52,29	7,5241	0,87882	0,86459
53,15	7,4829	0,89403	0,8798
54,01	7,4197	0,90668	0,89245
54,86	7,3421	0,92112	0,90689
55,72	7,4388	0,94316	0,92893
56,58	7,0411	0,9439	0,92967
57,44	7,1555	0,96297	0,94874
58,29	7,1633	0,98091	0,96668
59,15	7,0488	0,99465	0,98042
60,01	6,945	1,005	0,99078
60,87	6,8903	1,0198	1,0056
61,72	6,7754	1,036	1,0218
62,58	6,7199	1,0481	1,0339
63,44	6,6967	1,0638	1,0496
64,29	6,7442	1,0838	1,0696
65,15	6,5846	1,0944	1,0802
66,01	6,5257	1,1066	1,0924
66,87	6,4838	1,1225	1,1083
67,72	6,2959	1,1354	1,1212
68,58	6,2975	1,1481	1,1339
69,44	6,3054	1,1641	1,1499
70,3	6,2003	1,178	1,1638
71,15	6,2181	1,1932	1,179
72,01	6,1705	1,2058	1,1916
72,87	6,3455	1,2301	1,2159
73,72	6,0005	1,2302	1,216
74,58	6,1035	1,2494	1,2352
75,44	6,1458	1,2647	1,2504
76,3	6,0162	1,2766	1,2623
77,15	6,057	1,2922	1,278
78,01	6,079	1,3063	1,2921
78,87	6,1306	1,3243	1,3101
79,73	6,1028	1,3352	1,321
80,58	6,0955	1,3504	1,3361
81,44	6,1703	1,3667	1,3524
82,3	6,0218	1,3741	1,3599
83,15	6,1203	1,3911	1,3769
84,01	6,1851	1,4074	1,3932
84,87	6,1112	1,4214	1,4071
85,73	6,156	1,4346	1,4204
86,58	6,244	1,4496	1,4353
87,44	6,2745	1,4662	1,452
88,3	6,2705	1,4784	1,4642
89,16	6,2945	1,4927	1,4785
90,01	6,417	1,5125	1,4983
90,87	6,3647	1,521	1,5068
91,73	6,3759	1,5345	1,5203
92,58	6,4544	1,5507	1,5365
93,44	6,4005	1,5616	1,5473
94,3	6,4927	1,5768	1,5626
95,16	6,5479	1,5918	1,5776
96,01	6,5681	1,6052	1,591
96,87	6,6091	1,6198	1,6056
97,73	6,7207	1,636	1,6217
98,59	6,8785	1,6571	1,6428
99,44	6,7567	1,6637	1,6494
100,3	6,8344	1,6785	1,6643
101,2	6,8956	1,6935	1,6792
102	6,8244	1,7053	1,6911
102,9	6,9324	1,7191	1,7049
103,7	7,0205	1,7361	1,7219
104,6	7,0155	1,7495	1,7353
105,4	7,083	1,7635	1,7492
106,3	7,1312	1,7783	1,7641
107,2	7,3657	1,8015	1,7873
108	7,0898	1,8029	1,7886
108,9	7,2288	1,8206	1,8063
109,7	7,3361	1,8361	1,8219
110,6	7,2898	1,8496	1,8354
111,4	7,315	1,8639	1,8497
112,3	7,33	1,8783	1,8641
113,2	7,1938	1,8951	1,8808
114	1,6717	1,906	1,8918
114,9	1,5825	1,9217	1,9075
115,7	1,57	1,9405	1,9263
116,6	1,479	1,9481	1,9339
117,4	1,4806	1,9626	1,9484
118,3	1,4464	1,9793	1,965
119,2	1,3617	1,9934	1,9792
120	1,2669	2,0059	1,9917
120,9	1,2272	2,0212	2,0069
121,7	1,1535	2,0357	2,0215
122,6	1,1252	2,0494	2,0352
123,4	1,0937	2,0656	2,0514
124,3	1,0467	2,08	2,0658
125,2	0,99624	2,0911	2,0769
126	0,99631	2,1066	2,0923
126,9	0,95828	2,1216	2,1074
127,7	0,9032	2,1348	2,1206
128,6	0,84781	2,1477	2,1335
129,4	0,78452	2,1631	2,1488
130,3	0,70875	2,18	2,1657
131,2	0,68989	2,1914	2,1772
132	0,6531	2,2074	2,1931
132,9	0,66743	2,2291	2,2149
133,7	0,55314	2,2306	2,2164
134,6	0,56151	2,2509	2,2367
135,4	0,53572	2,2656	2,2514
136,3	0,47452	2,2773	2,2631
137,2	0,49984	2,2913	2,2771
138	0,47932	2,3077	2,2934
138,9	0,43503	2,3215	2,3073
139,7	0,44016	2,3356	2,3214
140,6	0,42427	2,3491	2,3349
141,4	0,4528	2,3714	2,3572
142,3	0,38602	2,3761	2,3619
143,2	0,40473	2,3925	2,3783
144	0,39608	2,4079	2,3937
144,9	0,36078	2,4181	2,4038
145,7	0,36472	2,4352	2,421
146,6	0,35478	2,4495	2,4353
147,4	0,34915	2,4675	2,4532
148,3	0,33545	2,4781	2,4639
149,2	0,3287	2,493	2,4788
150	0,3277	2,5133	2,4991
150,9	0,26795	2,5167	2,5025
151,7	0,27451	2,535	2,5207
152,6	0,27255	2,5499	2,5357
153,5	0,23797	2,5605	2,5463
154,3	0,24764	2,5775	2,5633
155,2	0,23131	2,5931	2,5788
156	0,23486	2,6099	2,5957
156,9	0,2139	2,6207	2,6065
157,7	0,20432	2,6354	2,6212
158,6	0,21327	2,6579	2,6437
159,5	0,15653	2,6618	2,6476
160,3	0,16234	2,6774	2,6631
161,2	0,1659	2,6936	2,6794
162	0,14857	2,7062	2,692
162,9	0,15819	2,7193	2,7051
163,7	0,13854	2,735	2,7208
164,6	0,13659	2,7529	2,7386
165,5	0,11963	2,7629	2,7487
166,3	0,10708	2,7788	2,7646
167,2	0,12668	2,8014	2,7872
168	0,086374	2,8016	2,7874
168,9	0,095108	2,821	2,8068
169,7	0,0946	2,8367	2,8225
170,6	0,084052	2,8484	2,8342
171,5	0,091992	2,8627	2,8484
172,3	0,096956	2,8788	2,8646
173,2	0,098683	2,8926	2,8783
174	0,098639	2,9067	2,8925
174,9	0,11506	2,9209	2,9067
175,7	0,10549	2,9403	2,9261
176,6	0,1129	2,9507	2,9365
177,5	0,11387	2,9633	2,949
178,3	0,11622	2,9792	2,965
179,2	0,10839	2,9939	2,9796
180	0,099819	3,0064	2,9922
180,9	0,10594	3,0214	3,0072
181,7	0,10351	3,0367	3,0225
182,6	0,087087	3,0498	3,0356
183,5	0,022295	3,065	3,0508
184,3	0,036991	3,0845	3,0703
185,2	0,041088	3,0915	3,0773
186	0,060292	3,1059	3,0917
186,9	0,080262	3,122	3,1078
187,7	0,10582	3,1367	3,1224
188,6	0,12272	3,1491	3,1349
189,5	0,14346	3,1646	3,1504
190,3	0,17161	3,1792	3,165
191,2	0,20575	3,1914	3,1772
192	0,23657	3,2071	3,1929
192,9	0,28622	3,2248	3,2105
193,7	0,30699	3,2343	3,22
194,6	0,34301	3,2493	3,2351
195,5	0,39545	3,2655	3,2512
196,3	0,42311	3,2768	3,2626
197,2	0,47448	3,2907	3,2765
198	0,51418	3,3067	3,2925
198,9	0,57926	3,3218	3,3076
199,7	0,63086	3,3341	3,3199
200,6	0,68813	3,3502	3,3359
201,5	0,75429	3,3665	3,3523
202,3	0,77813	3,3806	3,3664
203,2	0,84635	3,393	3,3788
204	0,8833	3,4081	3,3939
204,9	0,90728	3,4185	3,4043
205,7	0,97103	3,4343	3,4201
206,6	1,0401	3,4506	3,4364
207,5	1,0615	3,4643	3,4501
208,3	1,1025	3,4775	3,4632
209,2	1,1506	3,4933	3,4791
210	0,87494	3,5134	3,4992
210,9	0,70938	3,5171	3,5029
211,7	0,72571	3,5351	3,5209
212,6	0,73766	3,5504	3,5362
213,5	0,68634	3,5618	3,5476
214,3	0,68201	3,578	3,5638
215,2	0,65367	3,5927	3,5784
216	0,63663	3,6084	3,5942
216,9	0,62442	3,6209	3,6067
217,7	0,63866	3,6362	3,622
218,6	0,62459	3,6522	3,638
219,5	0,58407	3,6602	3,6459
220,3	-0,68156	3,6767	3,6624
221,2	-0,67888	3,6939	3,6797
222	-0,6762	3,7057	3,6915
222,9	-0,67721	3,7205	3,7062
223,7	-0,67609	3,7366	3,7223
224,6	-0,66975	3,7511	3,7369
225,5	-0,67396	3,7638	3,7496
226,3	-0,66723	3,7788	3,7645
227,2	-0,67825	3,8046	3,7904
228	-0,67383	3,8017	3,7875
228,9	-0,66925	3,8204	3,8061
229,7	-0,67008	3,8368	3,8226
230,6	-0,676	3,8478	3,8336
231,5	-0,67832	3,8624	3,8482
232,3	-0,67984	3,8776	3,8633
233,2	-0,669	3,8986	3,8843
234	-0,6719	3,9067	3,8924
234,9	-0,66881	3,9215	3,9073
235,7	-0,66867	3,9381	3,9239
236,6	-0,66852	3,9513	3,9371
237,5	-0,66761	3,9638	3,9496
238,3	-0,66293	3,9792	3,965
239,2	-0,67378	3,9908	3,9766
240	-0,66685	4,0057	3,9915
240,9	-0,66593	4,0219	4,0077
241,7	-0,66502	4,0382	4,024
242,6	-0,67668	4,0492	4,035
243,5	-0,67713	4,0642	4,05
244,3	-0,68044	4,0849	4,0706
245,2	-0,67735	4,092	4,0777
246	-0,671	4,1071	4,0929
246,9	-0,67167	4,1222	4,108
247,7	-0,60565	4,1348	4,1206
248,6	-0,70915	4,1492	4,135
249,5	-0,85292	4,1641	4,1499
250,3	-0,78043	4,1823	4,1681
251,2	-0,59227	4,192	4,1778
252	-0,71146	4,2069	4,1926
252,9	-0,71164	4,2237	4,2095
253,8	-0,71182	4,2362	4,222
254,6	-0,66421	4,2492	4,2349
255,3	-0,66973