File: Tests de traction/Fichiers source/04_07_2016/Sample_7_250N.txt
Time (s)	Load (N)	Machine Extension (mm)	Extension from Preload (mm)
0
0,4641	0,45088	0,01744	1,4506E-06
0,9283	0,64292	0,025881	0,0084423
1,392	1,0329	0,035968	0,018529
1,857	1,2606	0,042164	0,024725
2,321	1,5405	0,049595	0,032156
2,785	1,8261	0,057112	0,039673
3,249	2,1442	0,06494	0,047502
3,713	2,5911	0,074508	0,05707
4,177	2,9306	0,0833	0,065861
4,641	3,0549	0,086461	0,069022
5,105	3,4479	0,096051	0,078613
5,57	3,6947	0,10258	0,085137
6,034	4,091	0,11145	0,094013
6,498	4,417	0,11991	0,10247
6,962	4,7213	0,12886	0,11142
7,426	5,1426	0,13638	0,11894
7,89	5,3315	0,14251	0,12507
8,354	5,6304	0,14994	0,1325
8,819	5,9532	0,15773	0,14029
9,283	6,2974	0,16624	0,1488
9,747	6,5257	0,17435	0,15691
10,21	6,8578	0,18224	0,1648
10,68	7,0788	0,1892	0,17176
11,14	7,3339	0,19612	0,17869
11,6	7,6519	0,20481	0,18737
12,07	7,9351	0,21242	0,19498
12,53	8,6514	0,22762	0,21018
13	8,4458	0,22889	0,21145
13,46	8,4849	0,23213	0,21469
13,92	8,9141	0,24273	0,2253
14,39	9,1419	0,25006	0,23262
14,85	9,3421	0,25772	0,24029
15,32	9,757	0,26953	0,25209
15,78	9,9901	0,27767	0,26023
16,24	10,058	0,28269	0,26525
16,71	10,193	0,28792	0,27048
17,17	10,446	0,29738	0,27994
17,64	10,563	0,30368	0,28624
18,1	10,788	0,31327	0,29583
18,57	11,055	0,32424	0,3068
19,03	10,849	0,32458	0,30714
19,49	11,198	0,33527	0,31783
19,96	11,36	0,34319	0,32575
20,42	11,64	0,35157	0,33413
20,89	11,85	0,35979	0,34235
21,35	12,207	0,37303	0,35559
21,81	11,977	0,37306	0,35562
22,28	12,32	0,38227	0,36483
22,74	12,404	0,39007	0,37263
23,21	12,646	0,39802	0,38058
23,67	12,808	0,40592	0,38848
24,13	13,159	0,419	0,40156
24,6	12,911	0,41911	0,40167
25,06	13,185	0,42853	0,41109
25,53	13,29	0,43566	0,41822
25,99	13,413	0,44339	0,42595
26,46	13,556	0,45155	0,43411
26,92	13,808	0,4647	0,44726
27,38	13,568	0,46481	0,44737
27,85	13,888	0,4759	0,45846
28,31	13,825	0,4819	0,46446
28,78	14,002	0,49144	0,474
29,24	13,948	0,49923	0,48179
29,7	14,088	0,51245	0,49501
30,17	13,708	0,51281	0,49537
30,63	13,937	0,52306	0,50562
31,1	13,942	0,52739	0,50996
31,56	14,034	0,53724	0,51981
32,03	14,15	0,54529	0,52785
32,49	14,294	0,55577	0,53833
32,95	14,401	0,56276	0,54533
33,42	14,439	0,5704	0,55296
33,88	14,367	0,57382	0,55638
34,35	14,497	0,58289	0,56546
34,81	14,58	0,59143	0,57399
35,27	14,74	0,6021	0,58466
35,74	14,6	0,60539	0,58796
36,2	14,819	0,61764	0,6002
36,67	14,702	0,6207	0,60326
37,13	14,844	0,62932	0,61189
37,59	14,913	0,63844	0,621
38,06	14,955	0,64626	0,62882
38,52	15,121	0,65829	0,64085
38,99	14,776	0,6584	0,64096
39,45	15,005	0,66823	0,65079
39,92	14,939	0,67588	0,65844
40,38	14,987	0,68373	0,6663
40,84	15,079	0,69254	0,6751
41,31	15,084	0,70133	0,68389
41,77	15,033	0,70802	0,69058
42,24	15,044	0,71528	0,69784
42,7	15,039	0,72184	0,7044
43,16	14,986	0,72969	0,71225
43,63	15,063	0,73855	0,72112
44,09	15,104	0,74788	0,73044
44,56	15,003	0,75571	0,73827
45,02	14,927	0,7616	0,74416
45,49	14,922	0,7678	0,75037
45,95	14,914	0,77672	0,75929
46,41	14,906	0,78401	0,76658
46,88	14,878	0,79258	0,77514
47,34	14,868	0,80234	0,7849
47,81	14,576	0,8032	0,78576
48,27	14,733	0,81427	0,79683
48,73	14,76	0,8242	0,80676
49,2	14,82	0,83245	0,81501
49,66	14,83	0,84189	0,82445
50,13	14,712	0,84898	0,83154
50,59	14,663	0,856	0,83856
51,05	14,475	0,86066	0,84322
51,52	14,534	0,86987	0,85244
51,98	14,432	0,87663	0,85919
52,45	14,565	0,88906	0,87162
52,91	14,439	0,89579	0,87835
53,38	14,257	0,9013	0,88386
53,84	14,169	0,90751	0,89007
54,3	14,205	0,91634	0,8989
54,77	14,195	0,92459	0,90715
55,23	14,161	0,93264	0,9152
55,7	14,107	0,94279	0,92535
56,16	13,784	0,9428	0,92536
56,62	13,92	0,95352	0,93609
57,09	13,945	0,96276	0,94532
57,55	13,875	0,96893	0,95149
58,02	13,96	0,97941	0,96197
58,48	13,843	0,98692	0,96948
58,94	13,762	0,99411	0,97667
59,41	13,68	1,0003	0,98287
59,87	13,752	1,0093	0,9919
60,34	13,632	1,0158	0,99833
60,8	13,653	1,0254	1,008
61,27	13,777	1,0374	1,02
61,73	13,42	1,0375	1,0201
62,19	13,503	1,0469	1,0295
62,66	13,459	1,0542	1,0367
63,12	13,513	1,0638	1,0464
63,59	13,489	1,0719	1,0544
64,05	13,704	1,0856	1,0682
64,51	13,289	1,0858	1,0684
64,98	13,417	1,0947	1,0773
65,44	13,288	1,1006	1,0831
65,91	13,339	1,1093	1,0918
66,37	13,377	1,1181	1,1007
66,84	13,475	1,1311	1,1136
67,3	13,117	1,1311	1,1137
67,76	13,258	1,1409	1,1235
68,23	13,172	1,1464	1,1289
68,69	13,204	1,156	1,1386
69,16	13,219	1,1637	1,1463
69,62	13,438	1,1791	1,1617
70,08	13,039	1,1792	1,1618
70,55	13,08	1,1875	1,1701
71,01	13,003	1,1935	1,1761
71,48	13,047	1,2027	1,1853
71,94	13,011	1,2101	1,1927
72,4	13,144	1,2223	1,2049
72,87	12,915	1,2269	1,2095
73,33	12,877	1,2326	1,2152
73,8	12,853	1,2397	1,2223
74,26	12,889	1,2496	1,2322
74,73	12,864	1,2551	1,2377
75,19	12,911	1,2656	1,2482
75,65	12,793	1,2719	1,2545
76,12	12,834	1,2807	1,2633
76,58	12,747	1,2866	1,2692
77,05	12,79	1,2947	1,2772
77,51	12,736	1,3023	1,2849
77,97	12,811	1,3112	1,2938
78,44	12,849	1,3207	1,3033
78,9	12,638	1,324	1,3065
79,37	12,667	1,3331	1,3157
79,83	12,673	1,3403	1,3228
80,3	12,717	1,3492	1,3318
80,76	12,726	1,3579	1,3405
81,22	12,85	1,3703	1,3529
81,69	12,546	1,3705	1,3531
82,15	12,687	1,3814	1,364
82,62	12,599	1,3865	1,3691
83,08	12,704	1,3966	1,3791
83,54	12,652	1,4034	1,3859
84,01	12,793	1,4175	1,4
84,47	12,437	1,4175	1,4001
84,94	12,519	1,4278	1,4103
85,4	12,269	1,4333	1,4158
85,86	10,226	1,4426	1,4251
86,33	8,0177	1,4501	1,4327
86,79	7,794	1,4596	1,4422
87,26	7,6672	1,4674	1,45
87,72	7,5197	1,4731	1,4556
88,19	7,3781	1,4796	1,4621
88,65	7,295	1,4886	1,4711
89,11	7,1899	1,4965	1,479
89,58	7,1341	1,5075	1,4901
90,04	6,7589	1,5125	1,4951
90,51	6,7473	1,52	1,5025
90,97	6,5631	1,5254	1,508
91,43	6,5026	1,5353	1,5178
91,9	6,4246	1,5423	1,5249
92,36	6,4068	1,5511	1,5336
92,83	6,1908	1,5606	1,5432
93,29	6,0141	1,5613	1,5439
93,75	6,0211	1,5724	1,555
94,22	6,0712	1,5822	1,5647
94,68	5,9638	1,5888	1,5714
95,15	5,9395	1,5979	1,5805
95,61	5,8526	1,6081	1,5906
96,08	5,6364	1,6083	1,5908
96,54	5,7087	1,6189	1,6015
97	5,6743	1,6273	1,6099
97,47	5,6627	1,6365	1,6191
97,93	5,6216	1,644	1,6266
98,4	5,5991	1,656	1,6385
98,86	5,3878	1,656	1,6385
99,32	5,4246	1,6659	1,6484
99,79	5,4107	1,673	1,6556
100,3	5,3694	1,6822	1,6648
100,7	5,3645	1,6899	1,6725
101,2	5,2865	1,699	1,6816
101,6	5,254	1,7071	1,6897
102,1	5,1735	1,7129	1,6954
102,6	5,1346	1,7187	1,7013
103	5,1215	1,7284	1,711
103,5	5,1222	1,7363	1,7189
104	5,0864	1,7455	1,728
104,4	4,9489	1,7514	1,7339
104,9	4,9621	1,7598	1,7423
105,4	4,9266	1,7658	1,7484
105,8	4,9312	1,7748	1,7574
106,3	4,9015	1,7824	1,765
106,8	5,0093	1,8	1,7826
107,2	4,6792	1,8002	1,7827
107,7	4,5661	1,8	1,7825
108,1	4,664	1,812	1,7946
108,6	4,6121	1,8217	1,8042
109,1	4,5837	1,8284	1,8109
109,5	4,5827	1,8386	1,8211
110	4,4762	1,8447	1,8272
110,5	4,4818	1,8529	1,8355
110,9	4,4234	1,8585	1,841
111,4	4,4212	1,8676	1,8501
111,9	4,3383	1,8746	1,8572
112,3	4,3597	1,8839	1,8664
112,8	4,2977	1,8924	1,8749
113,2	4,2052	1,8971	1,8796
113,7	4,1891	1,9049	1,8875
114,2	4,1635	1,9129	1,8954
114,6	4,1302	1,9207	1,9032
115,1	4,1122	1,9301	1,9126
115,6	4,1265	1,9426	1,9251
116	3,9501	1,9428	1,9253
116,5	4,0216	1,954	1,9366
117	3,9471	1,9586	1,9412
117,4	3,9076	1,9674	1,95
117,9	3,8853	1,9757	1,9582
118,4	3,9018	1,9914	1,974
118,8	3,7024	1,9905	1,9731
119,3	3,6565	1,9942	1,9767
119,7	3,705	2,0061	1,9887
120,2	3,6465	2,0151	1,9976
120,7	3,6365	2,0233	2,0059
121,1	3,652	2,0374	2,02
121,6	3,4432	2,0376	2,0201
122,1	3,4646	2,0464	2,0289
122,5	3,3836	2,0517	2,0342
123	3,3712	2,0614	2,044
123,5	3,2942	2,0696	2,0521
123,9	3,2532	2,0792	2,0618
124,4	3,1141	2,0876	2,0702
124,9	2,9956	2,0877	2,0702
125,3	3,0442	2,0982	2,0808
125,8	2,955	2,1076	2,0902
126,2	2,8538	2,1151	2,0976
126,7	2,7623	2,1264	2,109
127,2	2,5759	2,1328	2,1154
127,6	2,5172	2,1362	2,1187
128,1	2,5093	2,1451	2,1277
128,6	2,5222	2,1548	2,1374
129	2,4855	2,1609	2,1434
129,5	2,6074	2,1772	2,1597
130	2,4728	2,1774	2,16
130,4	2,5087	2,1854	2,168
130,9	2,5002	2,191	2,1736
131,3	2,512	2,201	2,1836
131,8	2,5187	2,2085	2,191
132,3	2,5253	2,2165	2,1991
132,7	2,5513	2,2281	2,2106
133,2	2,4434	2,2281	2,2107
133,7	2,4541	2,2388	2,2214
134,1	2,3406	2,2449	2,2275
134,6	-0,12732	2,254	2,2366
135,1	-0,12795	2,2641	2,2467
135,5	-0,12859	2,2703	2,2529
136	-0,12922	2,2781	2,2606
136,5	-0,12985	2,2854	2,268
136,9	-0,13049	2,2916	2,2741
137,4	-0,13112	2,3	2,2826
137,8	-0,13175	2,3094	2,2919
138,2		2,3181	2,3006