File: Tests de traction/Fichiers source/04_07_2016/Sample_10_250N.txt
Time (s)	Load (N)	Machine Extension (mm)	Extension from Preload (mm)
0
1,342	0,75776	0,033268	0,014016
2,685	1,2295	0,051842	0,03259
4,027	1,8704	0,078113	0,05886
5,369	2,3854	0,10035	0,081097
6,712	2,9097	0,12269	0,10343
8,054	3,4573	0,14724	0,12799
9,396	3,8434	0,16741	0,14816
10,74	4,359	0,19174	0,17249
12,08	4,6814	0,21099	0,19173
13,42	5,3536	0,24314	0,22389
14,77	5,3998	0,25582	0,23657
16,11	5,808	0,27986	0,2606
17,45	6,1462	0,30265	0,2834
18,79	6,4065	0,32349	0,30424
20,13	6,8301	0,349	0,32975
21,48	6,9925	0,36925	0,35
22,82	7,1378	0,38952	0,37027
24,16	7,4806	0,41382	0,39457
25,5	7,623	0,43592	0,41667
26,85	7,8948	0,45878	0,43953
28,19	8,0669	0,47995	0,4607
29,53	8,3384	0,50417	0,48491
30,87	8,4869	0,52532	0,50607
32,22	8,6906	0,54842	0,52916
33,56	8,9499	0,57425	0,555
34,9	8,9579	0,59132	0,57207
36,24	9,3106	0,62254	0,60328
37,58	8,7193	0,63608	0,61683
38,93	8,9463	0,66059	0,64134
40,27	9,0793	0,68177	0,66252
41,61	9,2538	0,7048	0,68555
42,95	9,2005	0,72213	0,70287
44,3	9,4757	0,74914	0,72989
45,64	9,5818	0,77125	0,75199
46,98	9,709	0,793	0,77374
48,32	9,7726	0,81515	0,7959
49,67	9,9944	0,83828	0,81903
51,01	10,018	0,8602	0,84095
52,35	10,173	0,88268	0,86343
53,69	10,401	0,91052	0,89127
55,03	10,41	0,92727	0,90802
56,38	10,588	0,95327	0,93402
57,72	10,55	0,97171	0,95245
59,06	10,82	0,99803	0,97878
60,4	10,759	1,0159	0,99669
61,75	10,944	1,0407	1,0215
63,09	11,014	1,0618	1,0426
64,43	11,137	1,0851	1,0659
65,77	11,043	1,104	1,0848
67,12	11,197	1,1301	1,1108
68,46	10,978	1,1479	1,1286
69,8	10,891	1,174	1,1547
71,14	9,5084	1,1982	1,1789
72,48	9,608	1,2183	1,199
73,83	9,9312	1,2441	1,2248
75,17	10,03	1,2639	1,2446
76,51	10,342	1,2897	1,2704
77,85	10,346	1,307	1,2878
79,2	10,615	1,3333	1,314
80,54	10,626	1,3524	1,3332
81,88	10,844	1,3766	1,3574
83,22	10,87	1,3965	1,3772
84,57	11,009	1,421	1,4017
85,91	11,118	1,4436	1,4243
87,25	11,178	1,4645	1,4453
88,59	11,335	1,4908	1,4715
89,94	11,371	1,5103	1,4911
91,28	11,467	1,5344	1,5151
92,62	11,539	1,5554	1,5362
93,96	11,57	1,5774	1,5581
95,3	11,619	1,599	1,5798
96,65	11,775	1,6227	1,6035
97,99	11,895	1,6452	1,6259
99,33	11,915	1,6676	1,6483
100,7	11,893	1,6874	1,6681
102	12,332	1,7195	1,7003
103,4	12,051	1,7321	1,7128
104,7	12,326	1,7604	1,7412
106	12,194	1,7772	1,758
107,4	12,335	1,8013	1,7821
108,7	12,381	1,8237	1,8044
110,1	12,402	1,8455	1,8262
111,4	12,315	1,8637	1,8444
112,8	12,562	1,8896	1,8704
114,1	12,496	1,9088	1,8896
115,4	12,69	1,9346	1,9154
116,8	12,843	1,9594	1,9401
118,1	12,843	1,98	1,9607
119,5	13,017	2,0046	1,9853
120,8	12,93	2,0235	2,0043
122,2	13,106	2,0486	2,0294
123,5	13,091	2,0682	2,0489
124,8	13,455	2,0982	2,079
126,2	13,23	2,1129	2,0937
127,5	13,37	2,1372	2,118
128,9	13,389	2,1589	2,1397
130,2	13,471	2,1812	2,162
131,5	13,534	2,204	2,1847
132,9	13,566	2,2254	2,2062
134,2	13,719	2,2501	2,2308
135,6	13,715	2,2709	2,2516
136,9	13,628	2,2899	2,2706
138,3	13,827	2,3156	2,2964
139,6	13,884	2,3386	2,3194
140,9	13,935	2,3604	2,3411
142,3	13,959	2,381	2,3617
143,6	14,068	2,4039	2,3846
145	14,445	2,434	2,4148
146,3	14,145	2,4487	2,4295
147,7	14,451	2,477	2,4577
149	14,242	2,4927	2,4735
150,3	14,385	2,5167	2,4974
151,7	14,441	2,5404	2,5211
153	14,478	2,5622	2,543
154,4	14,394	2,5813	2,5621
155,7	14,495	2,606	2,5867
157,1	14,388	2,6258	2,6065
158,4	14,529	2,6497	2,6304
159,7	14,439	2,67	2,6508
161,1	14,537	2,6959	2,6767
162,4	14,657	2,7223	2,703
163,8	14,499	2,7397	2,7205
165,1	14,732	2,7669	2,7476
166,4	14,66	2,7844	2,7652
167,8	14,984	2,8118	2,7925
169,1	14,81	2,8283	2,8091
170,5	15,225	2,8586	2,8394
171,8	14,986	2,874	2,8548
173,2	15,133	2,8985	2,8793
174,5	15,261	2,9204	2,9012
175,8	15,273	2,9423	2,923
177,2	15,089	2,9587	2,9394
178,5	15,372	2,9869	2,9676
179,9	15,236	3,0036	2,9844
181,2	15,48	3,0302	3,011
182,6	15,584	3,0535	3,0342
183,9	15,64	3,0761	3,0569
185,2	15,732	3,0989	3,0796
186,6	15,709	3,1191	3,0998
187,9	16,033	3,1478	3,1285
189,3	15,861	3,1637	3,1445
190,6	16,2	3,1933	3,174
192	15,966	3,209	3,1897
193,3	16,12	3,2332	3,214
194,6	16,157	3,254	3,2348
196	16,264	3,2782	3,2589
197,3	16,355	3,3013	3,282
198,7	16,276	3,3219	3,3026
200	16,262	3,347	3,3277
201,3	16,177	3,3664	3,3471
202,7	16,309	3,3902	3,371
204	16,37	3,4116	3,3924
205,4	16,319	3,4317	3,4124
206,7	16,56	3,456	3,4367
208,1	16,663	3,4803	3,461
209,4	16,666	3,5006	3,4813
210,7	16,979	3,5284	3,5092
212,1	16,771	3,5439	3,5246
213,4	17,174	3,5743	3,555
214,8	16,964	3,5897	3,5704
216,1	17,116	3,6133	3,5941
217,5	17,127	3,6341	3,6149
218,8	17,235	3,6574	3,6381
220,1	17,399	3,6811	3,6618
221,5	17,35	3,7022	3,6829
222,8	17,46	3,7253	3,7061
224,2	17,479	3,7467	3,7275
225,5	17,448	3,7671	3,7479
226,9	17,638	3,7925	3,7733
228,2	17,714	3,8145	3,7953
229,5	17,855	3,8372	3,8179
230,9	18,018	3,8612	3,842
232,2	17,959	3,8804	3,8612
233,6	18,211	3,9079	3,8886
234,9	18,047	3,9237	3,9045
236,2	18,434	3,9536	3,9344
237,6	18,194	3,9688	3,9496
238,9	18,406	3,9968	3,9776
240,3	18,317	4,0151	3,9958
241,6	18,47	4,0385	4,0193
243	18,584	4,0615	4,0423
244,3	18,612	4,0832	4,064
245,6	18,653	4,1048	4,0856
247	18,632	4,1273	4,108
248,3	18,501	4,1502	4,131
249,7	18,528	4,1724	4,1531
251	18,45	4,1947	4,1755
252,4	18,4	4,2164	4,1971
253,7	18,391	4,2416	4,2224
255	18,033	4,2603	4,241
256,4	18,088	4,2858	4,2666
257,7	18,074	4,3047	4,2855
259,1	18,521	4,3334	4,3142
260,4	18,341	4,3504	4,3311
261,8	18,511	4,3738	4,3546
263,1	18,589	4,3959	4,3767
264,4	18,688	4,4187	4,3994
265,8	18,902	4,4434	4,4241
267,1	18,835	4,4624	4,4431
268,5	18,933	4,4861	4,4669
269,8	18,942	4,5075	4,4882
271,1	18,939	4,531	4,5117
272,5	18,853	4,5522	4,533
273,8	18,837	4,574	4,5547
275,2	19,047	4,5974	4,5781
276,5	19,137	4,6208	4,6015
277,9	19,112	4,6411	4,6219
279,2	19,523	4,6718	4,6526
280,5	19,073	4,6849	4,6656
281,9	19,208	4,7117	4,6924
283,2	18,88	4,7305	4,7112
284,6	18,914	4,7544	4,7352
285,9	18,744	4,7756	4,7564
287,3	18,538	4,7977	4,7784
288,6	18,438	4,8231	4,8039
289,9	18,089	4,8427	4,8235
291,3	17,667	4,8664	4,8471
292,6	17,226	4,888	4,8687
294	16,457	4,9085	4,8892
295,3	16,292	4,9327	4,9135
296,7	16,044	4,9583	4,9391
298	15,675	4,9776	4,9584
299,3	15,476	5,0022	4,9829
300,7	15,032	5,0204	5,0012
302	15,035	5,05	5,0308
303,4	14,498	5,0652	5,046
304,7	14,687	5,0963	5,077
306	14,042	5,1112	5,092
307,4	13,997	5,1358	5,1165
308,7	13,634	5,1569	5,1376
310,1	13,486	5,1792	5,1599
311,4	13,278	5,2036	5,1844
312,8	13,086	5,2239	5,2046
314,1	12,667	5,2426	5,2233
315,4	12,666	5,2682	5,249
316,8	12,427	5,2914	5,2722
318,1	12,357	5,313	5,2937
319,5	12,183	5,3349	5,3157
320,8	12,083	5,3571	5,3379
322,2	12,095	5,3831	5,3639
323,5	11,822	5,4011	5,3818
324,8	11,784	5,4258	5,4066
326,2	11,619	5,4465	5,4273
327,5	11,666	5,4709	5,4517
328,9	11,394	5,491	5,4717
330,2	11,395	5,5152	5,4959
331,6	11,267	5,5372	5,5179
332,9	11,074	5,5588	5,5396
334,2	10,213	5,5764	5,5572
335,6	9,4588	5,6037	5,5845
336,9	9,1613	5,6233	5,6041
338,3	9,2356	5,6493	5,63
339,6	8,882	5,6721	5,6528
340,9	8,3188	5,6942	5,6749
342,3	7,4375	5,7183	5,6991
343,6	6,826	5,738	5,7188
345	6,3617	5,7636	5,7443
346,3	6,0531	5,7811	5,7619
347,7	5,8615	5,8071	5,7878
349	5,6189	5,8263	5,8071
350,3	5,4918	5,8509	5,8317
351,7	5,2903	5,8723	5,853
353	5,1153	5,8953	5,876
354,4	4,911	5,9179	5,8987
355,7	4,7194	5,9395	5,9202
357,1	4,4335	5,9581	5,9388
358,4	4,3742	5,985	5,9658
359,7	4,1107	6,0057	5,9865
361,1	4,0532	6,0285	6,0093
362,4	3,8239	6,0537	6,0345
363,8	3,6945	6,0745	6,0552
365,1	3,4882	6,0954	6,0762
366,5	3,3399	6,1174	6,0981
367,8	3,2799	6,1494	6,1302
369,1	3,0223	6,1618	6,1426
370,5	2,9349	6,1902	6,171
371,8	2,6913	6,2069	6,1876
373,2	2,5714	6,2313	6,2121
374,5	2,4764	6,2534	6,2342
375,8	2,3175	6,2758	6,2566
377,2	2,0732	6,2917	6,2725
378,5	1,9851	6,3188	6,2996
379,9	1,7122	6,3383	6,319
381,2	1,6036	6,3636	6,3444
382,6	1,4059	6,3877	6,3684
383,9	1,1931	6,4092	6,39
385,2	0,97942	6,4337	6,4145
386,6	0,90394	6,4543	6,435
387,9	0,85128	6,479	6,4597
389,3	0,86948	6,4974	6,4782
390,6	0,92695	6,5237	6,5045
392	0,98553	6,5422	6,523
393,3	1,0777	6,5666	6,5473
394,6	1,158	6,5889	6,5696
396	-0,58476	6,6113	6,5921
397,3	-0,58381	6,6342	6,615
398,7	-0,58044	6,6548	6,6355
399,8	-0,5768