File: Tests de traction/Fichiers source/04_07_2016/Sample_11_250N.txt
Time (s)	Load (N)	Machine Extension (mm)	Extension from Preload (mm)
0
2,138	1,2834	0,043934	0,026635
4,275	2,189	0,076295	0,058996
6,413	3,6681	0,12455	0,10725
8,55	4,2865	0,15125	0,13395
10,69	5,1487	0,18707	0,16977
12,83	5,8797	0,2204	0,2031
14,96	7,0574	0,26941	0,25211
17,1	7,4288	0,29508	0,27779
19,24	7,9439	0,32885	0,31155
21,38	8,3043	0,36212	0,34482
23,51	8,955	0,40943	0,39213
25,65	8,9048	0,43794	0,42064
27,79	9,172	0,47085	0,45355
29,93	9,0098	0,50951	0,49221
32,06	9,313	0,54905	0,53175
34,2	9,4197	0,57876	0,56146
36,34	9,6879	0,61381	0,59651
38,48	9,9148	0,65065	0,63335
40,61	10,289	0,69049	0,67319
42,75	10,355	0,7211	0,7038
44,89	10,483	0,75671	0,73941
47,03	10,369	0,79218	0,77488
49,16	10,829	0,83316	0,81586
51,3	10,89	0,86504	0,84775
53,44	10,958	0,89994	0,88265
55,58	11,173	0,93612	0,91882
57,71	11,409	0,97514	0,95784
59,85	11,448	1,0065	0,98924
61,99	11,55	1,042	1,0247
64,13	11,726	1,0787	1,0614
66,26	11,994	1,1179	1,1006
68,4	11,968	1,1485	1,1312
70,54	12,044	1,1838	1,1665
72,68	12,288	1,2231	1,2058
74,81	12,382	1,258	1,2407
76,95	12,465	1,2916	1,2743
79,09	12,613	1,3271	1,3098
81,23	12,59	1,3627	1,3454
83,36	12,843	1,3996	1,3823
85,5	12,954	1,4351	1,4178
87,64	12,974	1,4689	1,4516
89,78	13,094	1,5051	1,4878
91,91	13,541	1,5474	1,5301
94,05	13,443	1,5775	1,5602
96,19	13,515	1,6124	1,5951
98,33	13,678	1,6496	1,6323
100,5	13,85	1,6849	1,6676
102,6	13,998	1,7207	1,7034
104,7	14,017	1,7546	1,7373
106,9	14,167	1,7903	1,773
109	14,378	1,8277	1,8104
111,2	14,453	1,8619	1,8446
113,3	14,615	1,8979	1,8806
115,4	14,823	1,9354	1,9181
117,6	14,913	1,9699	1,9526
119,7	15,036	2,005	1,9877
121,8	15,169	2,04	2,0227
124	15,233	2,0748	2,0575
126,1	15,546	2,1146	2,0973
128,3	15,565	2,1474	2,1301
130,4	15,644	2,1827	2,1654
132,5	15,724	2,2176	2,2003
134,7	15,918	2,2549	2,2376
136,8	16,008	2,29	2,2728
138,9	16,173	2,3258	2,3085
141,1	16,229	2,3608	2,3435
143,2	16,418	2,3971	2,3798
145,4	16,466	2,4322	2,4149
147,5	16,598	2,4683	2,451
149,6	16,803	2,5067	2,4894
151,8	16,821	2,5395	2,5222
153,9	16,94	2,5754	2,5581
156	17,034	2,6109	2,5936
158,2	17,212	2,6479	2,6306
160,3	17,264	2,6823	2,665
162,5	17,032	2,7172	2,6999
164,6	15,635	2,7522	2,7349
166,7	15,898	2,7921	2,7748
168,9	16,145	2,8247	2,8074
171	16,432	2,8594	2,8421
173,1	16,754	2,8972	2,8799
175,3	16,909	2,9322	2,9149
177,4	16,971	2,9656	2,9483
179,6	17,15	3,0021	2,9848
181,7	17,295	3,0386	3,0213
183,8	17,594	3,078	3,0607
186	17,535	3,1093	3,092
188,1	17,593	3,1439	3,1266
190,2	17,777	3,1824	3,1651
192,4	17,899	3,2179	3,2006
194,5	17,914	3,2519	3,2346
196,7	17,991	3,2879	3,2706
198,8	18,039	3,323	3,3057
200,9	18,211	3,3599	3,3426
203,1	18,264	3,395	3,3777
205,2	18,247	3,4293	3,412
207,3	18,428	3,4673	3,45
209,5	18,506	3,5029	3,4856
211,6	18,425	3,5348	3,5175
213,8	18,533	3,5704	3,5531
215,9	18,687	3,6086	3,5913
218	19,074	3,6505	3,6332
220,2	18,872	3,6795	3,6622
222,3	18,829	3,7134	3,6961
224,4	18,831	3,7482	3,7309
226,6	19,056	3,7876	3,7703
228,7	19,077	3,8211	3,8038
230,9	19,141	3,8567	3,8394
233	19,22	3,8923	3,875
235,1	19,472	3,9325	3,9152
237,3	19,382	3,9647	3,9474
239,4	19,345	3,9982	3,9809
241,5	19,578	4,0384	4,0211
243,7	19,787	4,0763	4,059
245,8	19,612	4,1064	4,0891
248	19,654	4,1408	4,1235
250,1	19,8	4,1781	4,1608
252,2	20,174	4,2198	4,2025
254,4	19,988	4,2497	4,2324
256,5	19,904	4,2828	4,2655
258,6	20,14	4,3209	4,3036
260,8	20,227	4,3569	4,3396
262,9	20,248	4,391	4,3737
265,1	20,309	4,4257	4,4084
267,2	20,355	4,4624	4,4451
269,3	20,698	4,5046	4,4873
271,5	20,534	4,5345	4,5172
273,6	20,532	4,5684	4,5511
275,7	20,714	4,6052	4,5879
277,9	20,905	4,6439	4,6266
280	20,849	4,6766	4,6593
282,2	20,823	4,7108	4,6935
284,3	20,789	4,7458	4,7285
286,4	21,388	4,7914	4,7741
288,6	21,127	4,8193	4,802
290,7	21,102	4,8528	4,8355
292,8	20,963	4,8859	4,8686
295	21,545	4,9308	4,9135
297,1	21,413	4,9619	4,9446
299,3	21,343	4,9956	4,9783
301,4	21,307	5,0304	5,0131
303,5	21,942	5,0756	5,0583
305,7	21,704	5,1038	5,0865
307,8	21,634	5,1384	5,1211
309,9	21,592	5,1728	5,1555
312,1	22,216	5,2196	5,2023
314,2	21,809	5,2459	5,2286
316,4	21,829	5,2807	5,2634
318,5	21,818	5,3147	5,2974
320,6	22,423	5,36	5,3427
322,8	22,13	5,3885	5,3712
324,9	22,161	5,4235	5,4062
327	22,138	5,4588	5,4415
329,2	22,614	5,5012	5,4839
331,3	22,328	5,5298	5,5125
333,5	22,454	5,5658	5,5485
335,6	22,385	5,6004	5,5831
337,7	22,939	5,6446	5,6274
339,9	22,643	5,6734	5,6561
342	22,631	5,7084	5,6911
344,1	22,667	5,7452	5,7279
346,3	23,001	5,7849	5,7676
348,4	22,885	5,8163	5,799
350,6	22,925	5,8504	5,8331
352,7	23,008	5,8881	5,8708
354,8	23,258	5,9264	5,9091
357	23,148	5,959	5,9417
359,1	23,129	5,9936	5,9763
361,2	23,222	6,0306	6,0133
363,4	23,427	6,0671	6,0498
365,5	23,413	6,1014	6,0841
367,7	23,399	6,1357	6,1184
369,8	23,408	6,1713	6,154
371,9	23,915	6,2154	6,1981
374,1	23,584	6,2438	6,2265
376,2	23,619	6,2786	6,2613
378,3	23,609	6,3135	6,2962
380,5	23,922	6,3531	6,3358
382,6	23,862	6,3863	6,369
384,8	23,81	6,4212	6,4039
386,9	23,977	6,4592	6,4419
389	24,074	6,4949	6,4776
391,2	24,043	6,5294	6,5121
393,3	24,098	6,5646	6,5473
395,4	24,091	6,5989	6,5816
397,6	24,287	6,637	6,6197
399,7	24,294	6,6717	6,6544
401,9	24,175	6,7063	6,689
404	23,51	6,7432	6,7259
406,1	23,7	6,7803	6,763
408,3	23,816	6,8139	6,7966
410,4	23,968	6,8488	6,8315
412,5	24,224	6,8868	6,8695
414,7	24,35	6,9219	6,9046
416,8	24,411	6,9572	6,9399
419	24,461	6,9909	6,9736
421,1	24,663	7,03	7,0127
423,2	24,702	7,0634	7,0461
425,4	24,755	7,0995	7,0822
427,5	24,791	7,1347	7,1174
429,6	24,812	7,1702	7,1529
431,8	24,932	7,2063	7,189
433,9	25,003	7,2426	7,2253
436,1	24,98	7,2767	7,2594
438,2	25,058	7,3141	7,2968
440,3	25,134	7,349	7,3317
442,5	25,179	7,3846	7,3673
444,6	25,281	7,4206	7,4033
446,7	25,278	7,4561	7,4388
448,9	25,366	7,4917	7,4744
451	25,31	7,5264	7,5091
453,2	25,424	7,5627	7,5454
455,3	25,374	7,5976	7,5803
457,4	25,547	7,6344	7,6171
459,6	25,651	7,6695	7,6522
461,7	25,676	7,7048	7,6875
463,8	25,684	7,7401	7,7228
466	25,686	7,7755	7,7582
468,1	25,825	7,8119	7,7946
470,3	25,976	7,8486	7,8313
472,4	25,85	7,8814	7,8641
474,5	26,028	7,9192	7,9019
476,7	25,927	7,9544	7,9371
478,8	25,941	7,9912	7,9739
480,9	25,747	8,0264	8,0091
483,1	25,525	8,0605	8,0432
485,2	25,496	8,0957	8,0784
487,4	25,742	8,1338	8,1165
489,5	26,015	8,1735	8,1562
491,6	25,918	8,2039	8,1866
493,8	25,9	8,2378	8,2205
495,9	26,154	8,2763	8,259
498	26,206	8,3108	8,2935
500,2	26,356	8,3464	8,3291
502,3	26,403	8,3819	8,3646
504,5	26,565	8,4188	8,4015
506,6	26,721	8,4566	8,4393
508,7	26,566	8,488	8,4707
510,9	26,622	8,524	8,5067
513	26,802	8,5619	8,5446
515,1	26,956	8,6009	8,5836
517,3	26,675	8,6301	8,6128
519,4	26,75	8,6659	8,6486
521,6	26,932	8,7051	8,6878
523,7	27,114	8,7433	8,726
525,8	26,879	8,7736	8,7563
528	26,92	8,8081	8,7908
530,1	26,929	8,8423	8,825
532,2	27,488	8,8888	8,8715
534,4	27,1	8,9163	8,899
536,5	27,066	8,9502	8,9329
538,7	27,297	8,9895	8,9722
540,8	27,445	9,0275	9,0102
542,9	27,248	9,0581	9,0408
545,1	27,249	9,0922	9,0749
547,2	27,37	9,1304	9,1131
549,3	27,763	9,1737	9,1564
551,5	27,366	9,201	9,1837
553,6	27,3	9,2356	9,2183
555,8	27,557	9,2768	9,2595
557,9	27,731	9,3145	9,2972
560	27,444	9,3431	9,3258
562,2	27,398	9,3769	9,3596
564,3	27,168	9,4116	9,3943
566,4	27,548	9,4597	9,4424
568,6	27,008	9,4851	9,4678
570,7	27,05	9,5195	9,5022
572,9	27,249	9,5596	9,5423
575	27,382	9,5992	9,5819
577,1	27,088	9,6284	9,6111
579,3	27,083	9,6616	9,6443
581,4	27,255	9,6999	9,6826
583,5	27,703	9,7437	9,7264
585,7	27,344	9,7707	9,7534
587,8	27,405	9,8058	9,7885
590	27,645	9,8439	9,8266
592,1	27,845	9,8844	9,8671
594,2	27,536	9,9133	9,896
596,4	27,492	9,9475	9,9302
598,5	27,498	9,9824	9,9651
600,6	27,822	10,025	10,007
602,8	27,582	10,056	10,038
604,9	27,607	10,09	10,073
607,1	27,788	10,129	10,112
609,2	28,127	10,172	10,155
611,3	24,315	10,199	10,181
613,5	17,745	10,232	10,215
615,6	13,977	10,268	10,251
617,7	12,428	10,312	10,295
619,9	10,836	10,34	10,322
622	9,5323	10,375	10,358
624,2	8,0025	10,412	10,395
626,3	6,3672	10,45	10,433
628,4	4,8768	10,484	10,466
630,6	2,4377	10,518	10,501
632,7	-0,82105	10,553	10,536
634,8	-0,82938	10,599	10,582
636,7		10,621	10,604