File: Tests de traction/Fichiers source/04_07_2016/Sample_3_250N.txt
Time (s)	Load (N)	Machine Extension (mm)	Extension from Preload (mm)
0		0	-0,058749
1,161	0,36815	0,068243	0,0094944
2,321	0,73452	0,087172	0,028423
3,482	1,1009	0,1078	0,04905
4,643	1,4673	0,13517	0,07642
5,803	1,8337	0,1459	0,087149
6,964	2,2	0,16663	0,10788
8,125	2,5664	0,18144	0,12269
9,285	2,9328	0,20443	0,14568
10,45	3,2992	0,22728	0,16853
11,61	3,6655	0,24245	0,1837
12,77	4,0319	0,26212	0,20338
13,93	4,3983	0,27745	0,21871
15,09	4,7647	0,30147	0,24272
16,25	5,1311	0,32208	0,26333
17,41	5,4974	0,33869	0,27994
18,57	5,8638	0,3602	0,30145
19,73	6,2302	0,37687	0,31813
20,89	6,5966	0,39755	0,33881
22,05	6,9629	0,42007	0,36132
23,21	7,3293	0,43485	0,3761
24,37	7,6957	0,45865	0,39991
25,53	7,9511	0,47701	0,41827
26,7	7,99	0,4939	0,43516
27,86	8,0288	0,51586	0,45711
29,02	8,0677	0,53141	0,47266
30,18	8,1065	0,55618	0,49743
31,34	8,1453	0,5706	0,51186
32,5	8,1842	0,59104	0,53229
33,66	8,223	0,61002	0,55127
34,82	8,2619	0,63059	0,57184
35,98	8,3007	0,65664	0,59789
37,14	8,3396	0,66904	0,61029
38,3	8,3784	0,68866	0,62991
39,46	8,4172	0,70627	0,64752
40,62	8,4561	0,72726	0,66851
41,78	8,4949	0,75043	0,69168
42,94	8,5338	0,76556	0,70681
44,11	8,5726	0,78527	0,72653
45,27	8,6114	0,80459	0,74584
46,43	8,6503	0,82345	0,7647
47,59	8,6891	0,84577	0,78702
48,75	8,728	0,86167	0,80292
49,91	8,7668	0,88209	0,82334
51,07	8,8057	0,90319	0,84444
52,23	8,8445	0,92005	0,8613
53,39	8,8833	0,94161	0,88286
54,55	8,9222	0,95747	0,89872
55,71	8,961	0,97946	0,92071
56,87	8,9999	0,99191	0,93316
58,03	9,0387	1,0173	0,95859
59,19	9,0775	1,0352	0,97643
60,35	9,1164	1,0535	0,99476
61,52	9,1552	1,0758	1,0171
62,68	9,1941	1,0884	1,0297
63,84	9,2329	1,1129	1,0541
65	9,2718	1,1334	1,0747
66,16	9,3106	1,1523	1,0935
67,32	9,3494	1,1795	1,1208
68,48	9,3883	1,1901	1,1314
69,64	9,4271	1,2103	1,1516
70,8	9,466	1,2286	1,1698
71,96	9,5048	1,2495	1,1908
73,12	9,5437	1,2771	1,2183
74,28	9,5825	1,2873	1,2285
75,44	9,6213	1,3073	1,2485
76,6	9,6602	1,3253	1,2666
77,76	9,699	1,346	1,2872
78,93	9,7379	1,3723	1,3136
80,09	9,7767	1,3839	1,3251
81,25	9,8155	1,4046	1,3458
82,41	9,8544	1,4239	1,3652
83,57	9,8932	1,4437	1,3849
84,73	9,9321	1,4626	1,4039
85,89	9,9709	1,4804	1,4217
87,05	10,01	1,5012	1,4425
88,21	10,049	1,5166	1,4578
89,37	10,087	1,5392	1,4805
90,53	10,126	1,5599	1,5012
91,69	10,165	1,5772	1,5184
92,85	10,204	1,5979	1,5392
94,01	10,243	1,6189	1,5602
95,17	10,282	1,6363	1,5775
96,34	10,32	1,657	1,5982
97,5	10,359	1,6729	1,6141
98,66	10,398	1,6971	1,6383
99,82	10,437	1,7134	1,6546
101	10,476	1,7322	1,6734
102,1	10,515	1,7493	1,6906
103,3	10,554	1,7706	1,7118
104,5	10,592	1,7988	1,74
105,6	10,631	1,8097	1,751
106,8	10,67	1,8298	1,771
107,9	10,709	1,8488	1,79
109,1	10,748	1,8681	1,8094
110,3	10,787	1,8932	1,8344
111,4	10,825	1,9066	1,8479
112,6	7,7667	1,9263	1,8676
113,7	7,3561	1,9468	1,8881
114,9	6,9456	1,9643	1,9055
116,1	6,535	1,9905	1,9318
117,2	1,0553	2,0024	1,9437
118,4	1,0784	2,0234	1,9647
119,5	1,1014	2,0389	1,9802
120,7	1,1245	2,0619	2,0031
121,9	1,1475	2,0866	2,0278
123	1,1706	2,1001	2,0414
124,2	1,1936	2,1206	2,0619
125,4	1,2167	2,1434	2,0846
126,5	1,2398	2,1577	2,0989
127,7	1,2628	2,1817	2,123
128,8	1,2859	2,1952	2,1364
130	1,3089	2,2201	2,1614
131,2	1,332	2,2346	2,1758
132,3	1,3551	2,2553	2,1966
133,5	1,3781	2,2751	2,2163
134,6	1,4012	2,2921	2,2334
135,8	1,4242	2,3202	2,2615
137	1,4473	2,3327	2,274
138,1	1,4704	2,3519	2,2931
139,3	1,4934	2,3714	2,3126
140,4	1,5165	2,3897	2,3309
141,6	1,5395	2,4163	2,3575
142,8	1,5626	2,4289	2,3702
143,9	1,5856	2,449	2,3902
145,1	1,6087	2,4657	2,4069
146,2	1,6318	2,4875	2,4288
147,4	1,6548	2,5143	2,4556
148,6	1,6779	2,5259	2,4672
149,7	1,7009	2,5457	2,487
150,9	1,724	2,5613	2,5025
152	1,7471	2,5842	2,5254
153,2	1,7701	2,6072	2,5485
154,4	1,7932	2,6209	2,5621
155,5	1,8162	2,6426	2,5838
156,7	1,8393	2,6596	2,6009
157,9	1,8624	2,68	2,6212
159	1,8854	2,7013	2,6426
160,2	1,9085	2,7181	2,6593
161,3	1,9315	2,7394	2,6807
162,5	1,9546	2,7537	2,6949
163,7	1,9777	2,7775	2,7188
164,8	1,973	2,795	2,7363
166	1,9642	2,8148	2,756
167,1	1,9555	2,8364	2,7777
168,3	1,9468	2,8552	2,7965
169,5	1,938	2,8738	2,815
170,6	1,9293	2,8934	2,8347
171,8	1,9206	2,911	2,8522
172,9	1,9119	2,9392	2,8804
174,1	1,9031	2,9522	2,8935
175,3	1,8944	2,9709	2,9122
176,4	1,8857	2,9882	2,9295
177,6	1,877	3,0095	2,9507
178,7	1,8682	3,0344	2,9756
179,9	1,8595	3,0477	2,9889
181,1	1,8508	3,0677	3,009
182,2	1,842	3,0853	3,0266
183,4	1,8333	3,1062	3,0474
184,5	1,8246	3,1312	3,0725
185,7	1,8159	3,1442	3,0855
186,9	1,8071	3,1646	3,1059
188	1,7984	3,1814	3,1227
189,2	1,7897	3,2044	3,1457
190,3	1,7809	3,2292	3,1705
191,5	1,7722	3,2407	3,1819
192,7	1,7635	3,2609	3,2022
193,8	1,7548	3,2775	3,2187
195	1,746	3,2995	3,2408
196,2	1,7373	3,3224	3,2637
197,3	1,7286	3,3369	3,2781
198,5	1,7199	3,3581	3,2994
199,6	1,7111	3,3761	3,3173
200,8	1,7024	3,3966	3,3378
202	1,6937	3,4169	3,3582
203,1	1,6849	3,4333	3,3745
204,3	1,6762	3,4574	3,3986
205,4	1,6675	3,4741	3,4153
206,6	1,6588	3,4933	3,4345
207,8	1,65	3,515	3,4563
208,9	1,6413	3,5295	3,4707
210,1	1,6326	3,557	3,4982
211,2	1,6239	3,5634	3,5047
212,4	1,6151	3,5905	3,5318
213,6	1,6064	3,6089	3,5502
214,7	1,5977	3,627	3,5683
215,9	1,5889	3,6568	3,598
217	1,5802	3,6689	3,6102
218,2	1,5715	3,687	3,6282
219,4	1,5628	3,7052	3,6465
220,5	1,554	3,7253	3,6665
221,7	1,5453	3,7506	3,6918
222,8	1,5366	3,7628	3,7041
224	1,5278	3,7828	3,724
225,2	1,5191	3,8037	3,745
226,3	1,5104	3,8217	3,7629
227,5	1,5017	3,8484	3,7897
228,7	1,4929	3,8599	3,8011
229,8	1,4842	3,8809	3,8222
231	1,4755	3,8954	3,8366
232,1	1,4668	3,9195	3,8607
233,3	1,458	3,9439	3,8851
234,5	1,4493	3,9565	3,8977
235,6	1,4406	3,9778	3,919
236,8	1,4318	3,999	3,9402
237,9	1,4231	4,015	3,9563
239,1	1,4144	4,0373	3,9786
240,3	1,4057	4,0523	3,9936
241,4	1,3969	4,0753	4,0166
242,6	1,3882	4,0942	4,0355
243,7	1,3795	4,1112	4,0524
244,9	1,3708	4,1337	4,075
246,1	1,362	4,1493	4,0905
247,2	1,3533	4,1708	4,112
248,4	1,3446	4,1919	4,1331
249,5	1,3358	4,2092	4,1505
250,7	1,3271	4,2304	4,1717
251,9	1,3184	4,2469	4,1882
253	1,3097	4,2691	4,2103
254,2	1,3009	4,2868	4,2281
255,3	1,2922	4,3058	4,2471
256,5	1,2835	4,3247	4,2659
257,7	1,2747	4,3427	4,2839
258,8	1,266	4,3645	4,3058
260	1,2573	4,383	4,3243
261,2	1,2486	4,4021	4,3434
262,3	1,2398	4,4187	4,3599
263,5	1,2311	4,4403	4,3816
264,6	1,2224	4,4654	4,4067
265,8	1,2137	4,4781	4,4194
267	1,2049	4,4993	4,4405
268,1	1,1962	4,5151	4,4564
269,3	1,1875	4,538	4,4793
270,4	1,1787	4,559	4,5002
271,6	1,17	4,5753	4,5165
272,8	1,1613	4,5968	4,538
273,9	1,1526	4,6148	4,5561
275,1	1,1438	4,6342	4,5754
276,2	1,1351	4,6575	4,5988
277,4	1,1264	4,6715	4,6127
278,6	1,1176	4,6937	4,635
279,7	1,1089	4,7068	4,648
280,9	1,1002	4,7316	4,6728
282	1,0915	4,7515	4,6928
283,2	1,0827	4,7679	4,7091
284,4	1,074	4,7969	4,7381
285,5	1,0653	4,8114	4,7526
286,7	1,0566	4,8283	4,7696
287,8	1,0478	4,8489	4,7901
289	1,0391	4,8658	4,807
290,2	1,0304	4,8885	4,8297
291,3	1,0216	4,9051	4,8464
292,5	1,0129	4,9245	4,8658
293,6	1,0042	4,9432	4,8844
294,8	0,99546	4,962	4,9032
296	0,98674	4,9932	4,9344
297,1	0,97801	5,0026	4,9439
298,3	0,96928	5,0219	4,9631
299,5	0,96055	5,0383	4,9796
300,6	0,95182	5,0606	5,0019
301,8	0,9431	5,0827	5,024
302,9	0,93437	5,0978	5,039
304,1	0,92564	5,1186	5,0599
305,3	0,91691	5,1381	5,0794
306,4	0,90819	5,1565	5,0978
307,6	0,89946	5,1773	5,1186
308,7	0,89073	5,1942	5,1354
309,9	0,882	5,2162	5,1574
311,1	0,87328	5,2341	5,1753
312,2	0,86455	5,2531	5,1944
313,4	0,85582	5,2766	5,2179
314,5	0,84709	5,2906	5,2319
315,7	0,83837	5,3125	5,2537
316,9	0,82964	5,3335	5,2748
318	0,82091	5,3504	5,2916
319,2	0,81218	5,3686	5,3098
320,3	0,80345	5,387	5,3282
321,5	0,79473	5,4094	5,3506
322,7	0,786	5,4276	5,3688
323,8	0,77727	5,4466	5,3879
325	0,76854	5,4677	5,409
326,1	0,75982	5,4843	5,4256
327,3	0,75109	5,5091	5,4504
328,5	0,74236	5,5257	5,467
329,6	0,73363	5,5429	5,4842
330,8	0,72491	5,5631	5,5043
332	0,71618	5,5818	5,523
333,1	0,70745	5,6093	5,5505
334,3	0,69872	5,6208	5,5621
335,4	0,69	5,6396	5,5809
336,6	0,68127	5,6572	5,5985
337,8	0,67254	5,6795	5,6208
338,9	0,66381	5,6982	5,6395
340,1	0,65509	5,7171	5,6583
341,2	0,64636	5,7373	5,6786
342,4	0,63763	5,759	5,7002
343,6	0,6289	5,7759	5,7171
344,7	0,62017	5,7985	5,7398
345,7	0,61272