File: Tests de traction/Fichiers source/04_07_2016/Sample_6_250N.txt
Time (s)	Load (N)	Machine Extension (mm)	Extension from Preload (mm)
0
1,059	0,21418	0,093403	0,00049045
2,118	0,27171	0,11354	0,020625
3,177	0,42419	0,13201	0,039097
4,236	0,86294	0,15295	0,060036
5,294	1,2749	0,16882	0,075909
6,353	1,6451	0,18606	0,093148
7,412	2,107	0,2091	0,11619
8,471	2,3392	0,22137	0,12846
9,53	2,5222	0,23888	0,14597
10,59	2,7586	0,2583	0,16539
11,65	3,1132	0,27292	0,18
12,71	3,4949	0,29293	0,20002
13,77	3,625	0,3051	0,21219
14,82	4,0712	0,32778	0,23487
15,88	4,4263	0,34813	0,25522
16,94	4,5729	0,36212	0,26921
18	4,869	0,37963	0,28672
19,06	5,3137	0,4022	0,30929
20,12	5,508	0,4137	0,32078
21,18	5,7933	0,43377	0,34086
22,24	5,973	0,44895	0,35604
23,3	6,2576	0,46874	0,37583
24,35	6,7678	0,49578	0,40286
25,41	6,6503	0,50031	0,4074
26,47	6,922	0,52199	0,42908
27,53	7,2115	0,54221	0,4493
28,59	7,2957	0,55633	0,46342
29,65	7,5439	0,57562	0,4827
30,71	7,6049	0,59074	0,49782
31,77	7,8133	0,60965	0,51674
32,83	8,0263	0,63101	0,5381
33,88	7,7624	0,64733	0,55442
34,94	7,7921	0,66249	0,56958
36	8,0317	0,6833	0,59039
37,06	8,058	0,69667	0,60376
38,12	8,2848	0,71619	0,62328
39,18	8,3748	0,73391	0,641
40,24	8,52	0,74916	0,65625
41,3	8,7816	0,77213	0,67922
42,36	8,8359	0,78663	0,69372
43,41	8,9785	0,80439	0,71148
44,47	9,2725	0,82747	0,73456
45,53	9,1912	0,8394	0,74649
46,59	9,3459	0,85794	0,76503
47,65	9,4896	0,8768	0,78389
48,71	9,531	0,89032	0,79741
49,77	9,6851	0,9107	0,81779
50,83	9,8472	0,92908	0,83617
51,89	9,9271	0,94589	0,85297
52,94	10,157	0,96825	0,87534
54	10,129	0,98028	0,88737
55,06	10,242	0,99862	0,90571
56,12	10,396	1,0192	0,92632
57,18	10,387	1,0321	0,93916
58,24	10,504	1,052	0,95904
59,3	10,496	1,0678	0,97488
60,36	10,662	1,0864	0,99346
61,42	10,918	1,1087	1,0158
62,47	10,88	1,122	1,0291
63,53	10,933	1,1386	1,0457
64,59	11,057	1,1577	1,0648
65,65	11,065	1,1737	1,0808
66,71	11,207	1,1921	1,0991
67,77	11,173	1,208	1,1151
68,83	11,287	1,2263	1,1333
69,89	11,466	1,2466	1,1537
70,95	11,621	1,2659	1,173
72	11,569	1,2801	1,1872
73,06	11,91	1,3052	1,2123
74,12	11,773	1,3164	1,2235
75,18	11,804	1,3339	1,241
76,24	11,904	1,3533	1,2603
77,3	11,867	1,3678	1,2748
78,36	11,976	1,3874	1,2945
79,42	11,906	1,4047	1,3118
80,48	11,973	1,4213	1,3284
81,53	12,261	1,4471	1,3542
82,59	12,052	1,4575	1,3646
83,65	12,067	1,4751	1,3822
84,71	12,072	1,4923	1,3994
85,77	11,948	1,5083	1,4154
86,83	11,965	1,529	1,4361
87,89	11,654	1,5432	1,4503
88,95	11,828	1,5628	1,4699
90,01	12,125	1,585	1,4921
91,06	12,07	1,5984	1,5055
92,12	12,174	1,6154	1,5225
93,18	12,245	1,6329	1,54
94,24	12,297	1,65	1,5571
95,3	12,469	1,6691	1,5761
96,36	12,594	1,6883	1,5954
97,42	12,595	1,7032	1,6102
98,48	12,709	1,7228	1,6299
99,54	12,653	1,7376	1,6447
100,6	12,771	1,7565	1,6636
101,7	12,912	1,7756	1,6827
102,7	12,931	1,7917	1,6988
103,8	13,014	1,8097	1,7168
104,8	13,07	1,8269	1,734
105,9	13,094	1,8438	1,7509
106,9	13,267	1,8636	1,7707
108	13,239	1,8799	1,787
109,1	13,332	1,8972	1,8043
110,1	13,471	1,9176	1,8247
111,2	13,518	1,9333	1,8404
112,2	13,498	1,9502	1,8573
113,3	13,682	1,9704	1,8775
114,4	13,636	1,9852	1,8923
115,4	13,749	2,0034	1,9105
116,5	13,82	2,0216	1,9287
117,5	13,854	2,038	1,9451
118,6	13,992	2,0587	1,9658
119,7	14,048	2,0747	1,9818
120,7	14,037	2,0921	1,9992
121,8	14,118	2,1088	2,0159
122,8	14,158	2,1265	2,0336
123,9	14,253	2,145	2,0521
124,9	14,402	2,1651	2,0721
126	14,375	2,1798	2,0869
127,1	14,591	2,2017	2,1088
128,1	14,601	2,2181	2,1252
129,2	14,587	2,2339	2,141
130,2	14,751	2,2539	2,161
131,3	14,643	2,267	2,1741
132,4	14,794	2,2871	2,1942
133,4	14,857	2,3058	2,2129
134,5	14,864	2,3202	2,2273
135,5	15,02	2,3401	2,2472
136,6	14,876	2,3528	2,2598
137,7	15,093	2,3748	2,2819
138,7	15,356	2,3978	2,3049
139,8	15,223	2,4095	2,3165
140,8	15,292	2,4278	2,3349
141,9	15,327	2,4456	2,3527
142,9	15,348	2,4621	2,3692
144	15,49	2,4809	2,3879
145,1	15,551	2,4987	2,4058
146,1	15,527	2,5153	2,4224
147,2	15,736	2,5363	2,4434
148,2	15,699	2,5525	2,4596
149,3	15,757	2,5692	2,4763
150,4	15,995	2,5913	2,4984
151,4	15,861	2,6035	2,5106
152,5	15,907	2,6207	2,5278
153,5	15,902	2,6371	2,5441
154,6	16,097	2,6577	2,5648
155,7	16,394	2,6819	2,589
156,7	16,221	2,694	2,6011
157,8	16,176	2,71	2,6171
158,8	16,372	2,7316	2,6386
159,9	16,231	2,7453	2,6523
161	16,308	2,7633	2,6704
162	16,274	2,7805	2,6876
163,1	16,296	2,7965	2,7036
164,1	16,367	2,8165	2,7235
165,2	16,274	2,8317	2,7388
166,2	16,419	2,8522	2,7593
167,3	16,524	2,8732	2,7803
168,4	16,36	2,886	2,793
169,4	16,327	2,904	2,8111
170,5	16,312	2,9216	2,8287
171,5	16,264	2,9383	2,8453
172,6	16,278	2,9565	2,8635
173,7	16,285	2,9741	2,8812
174,7	16,299	2,9937	2,9008
175,8	16,26	3,0111	2,9182
176,8	16,284	3,029	2,9361
177,9	16,201	3,0445	2,9516
179	16,307	3,0656	2,9727
180	16,14	3,0795	2,9865
181,1	16,217	3,098	3,0051
182,1	16,153	3,1153	3,0224
183,2	16,198	3,1327	3,0398
184,2	16,425	3,1564	3,0635
185,3	16,051	3,1662	3,0733
186,4	16,182	3,1865	3,0935
187,4	16,177	3,2057	3,1128
188,5	16,026	3,2203	3,1274
189,5	16,036	3,2391	3,1462
190,6	15,958	3,258	3,1651
191,7	15,9	3,2733	3,1804
192,7	15,983	3,2936	3,2007
193,8	15,846	3,3105	3,2175
194,8	15,73	3,3272	3,2343
195,9	15,45	3,3518	3,2589
197	14,826	3,3623	3,2694
198	14,115	3,3808	3,2879
199,1	13,325	3,3991	3,3062
200,1	13,078	3,4143	3,3214
201,2	13,095	3,4338	3,3409
202,2	12,914	3,4516	3,3587
203,3	12,781	3,4683	3,3754
204,4	12,789	3,4909	3,398
205,4	12,371	3,5047	3,4118
206,5	12,11	3,522	3,4291
207,5	11,974	3,5429	3,45
208,6	11,689	3,5558	3,4629
209,7	11,608	3,5742	3,4812
210,7	11,506	3,5921	3,4992
211,8	11,445	3,6087	3,5158
212,8	11,554	3,6315	3,5386
213,9	11,393	3,6467	3,5538
215	11,287	3,6634	3,5705
216	11,357	3,6855	3,5926
217,1	11,08	3,6974	3,6045
218,1	11,016	3,7151	3,6222
219,2	10,861	3,731	3,638
220,2	10,892	3,7495	3,6566
221,3	10,999	3,773	3,6801
222,4	10,81	3,7882	3,6953
223,4	10,719	3,8042	3,7113
224,5	10,705	3,824	3,7311
225,5	10,528	3,8383	3,7454
226,6	10,49	3,8566	3,7637
227,7	10,329	3,8718	3,7789
228,7	10,319	3,8902	3,7973
229,8	10,423	3,9109	3,818
230,8	10,144	3,9239	3,831
231,9	10,298	3,9454	3,8525
233	10,433	3,969	3,8761
234	10,236	3,9817	3,8888
235,1	10,161	3,9981	3,9052
236,1	10,059	4,0163	3,9234
237,2	9,9879	4,033	3,9401
238,2	9,9659	4,0518	3,9589
239,3	9,7371	4,0659	3,973
240,4	9,7292	4,0866	3,9937
241,4	9,6135	4,1057	4,0128
242,5	9,1254	4,1239	4,031
243,5	8,7054	4,1399	4,047
244,6	8,3423	4,1631	4,0701
245,7	7,7197	4,1736	4,0807
246,7	7,1669	4,1916	4,0987
247,8	6,7267	4,2108	4,1179
248,8	6,4616	4,227	4,1341
249,9	6,3048	4,2459	4,153
251	6,1999	4,2657	4,1728
252	5,9947	4,2805	4,1876
253,1	5,96	4,3047	4,2118
254,1	5,6633	4,3151	4,2222
255,2	5,538	4,3342	4,2413
256,3	5,3085	4,353	4,2601
257,3	5,1916	4,367	4,2741
258,4	5,0503	4,3886	4,2957
259,4	4,8641	4,4057	4,3127
260,5	4,719	4,4224	4,3294
261,5	4,6304	4,4447	4,3518
262,6	4,3974	4,4564	4,3635
263,7	4,2435	4,4738	4,3809
264,7	4,0271	4,4957	4,4028
265,8	3,9518	4,5091	4,4162
266,8	3,8094	4,5283	4,4354
267,9	3,6706	4,5454	4,4525
269	3,5738	4,563	4,4701
270	3,5399	4,588	4,4951
271,1	3,306	4,5992	4,5063
272,1	3,2012	4,6154	4,5225
273,2	3,0321	4,6354	4,5425
274,3	2,9459	4,6498	4,5569
275,3	2,8556	4,6691	4,5762
276,4	2,7273	4,6861	4,5932
277,4	2,6527	4,7028	4,6099
278,5	2,5669	4,7225	4,6295
279,5	2,3801	4,7359	4,6429
280,6	2,3265	4,7574	4,6645
281,7	2,2024	4,7804	4,6874
282,7	2,0786	4,7923	4,6994
283,8	1,9343	4,8096	4,7167
284,8	1,7672	4,8295	4,7366
285,9	1,7127	4,8432	4,7503
287	1,5957	4,8651	4,7722
288	1,481	4,8799	4,7869
289,1	1,459	4,8977	4,8048
290,1	1,4588	4,9223	4,8294
291,2	1,425	4,9335	4,8406
292,3	1,4397	4,9507	4,8577
293,3	1,4484	4,9696	4,8767
294,4	1,4928	4,9847	4,8918
295,4	1,5451	5,0053	4,9124
296,5	1,5619	5,0185	4,9256
297,5	1,6565	5,039	4,946
298,6	1,8074	5,0647	4,9718
299,7	1,8469	5,077	4,9841
300,7	1,9014	5,0913	4,9984
301,8	1,9667	5,109	5,0161
302,8	2,0474	5,1264	5,0335
303,9	2,1553	5,1455	5,0526
305	2,203	5,1627	5,0698
306	2,2677	5,1797	5,0868
307,1	2,2066	5,2015	5,1085
308,1	0,13492	5,2172	5,1243
309,2	0,13251	5,2334	5,1404
310,3	0,11891	5,2545	5,1616
311,3	0,12185	5,2677	5,1748
312,4	0,12185	5,287	5,1941
313,4	0,12847	5,3062	5,2133
314,5	0,13601	5,3209	5,228
315,4		5,3375	5,2446