File: Tests de traction/Fichiers source/04_07_2016/Sample_9_250N.txt
Time (s)	Load (N)	Machine Extension (mm)	Extension from Preload (mm)
0
1,318	0,38374	0,080224	0,0067129
2,636	0,67797	0,10498	0,031464
3,954	1,068	0,12409	0,050577
5,273	2,0307	0,15674	0,083228
6,591	2,3393	0,16959	0,09608
7,909	3,0153	0,19216	0,11865
9,227	3,6507	0,21443	0,14092
10,55	4,1307	0,2364	0,16288
11,86	4,3739	0,25434	0,18083
13,18	4,723	0,27818	0,20467
14,5	5,1939	0,30233	0,22882
15,82	5,6618	0,32365	0,25014
17,14	6,1204	0,34433	0,27082
18,45	6,5615	0,36615	0,29264
19,77	7,1259	0,39319	0,31968
21,09	7,3397	0,41056	0,33705
22,41	7,7776	0,43398	0,36047
23,73	8,0492	0,45422	0,38071
25,04	7,9804	0,47756	0,40405
26,36	7,8309	0,49662	0,42311
27,68	8,1965	0,52186	0,44835
29	8,2443	0,53974	0,46622
30,32	8,5297	0,56485	0,49134
31,64	8,5423	0,58454	0,51103
32,95	8,6469	0,60875	0,53524
34,27	8,7837	0,63183	0,55832
35,59	8,8967	0,6517	0,57818
36,91	9,2871	0,6819	0,60838
38,23	9,1953	0,69623	0,62272
39,54	9,4107	0,72007	0,64656
40,86	9,5097	0,74074	0,66723
42,18	9,656	0,76321	0,6897
43,5	9,8288	0,78728	0,71377
44,82	9,9103	0,80734	0,73383
46,14	9,8655	0,82603	0,75252
47,45	10,096	0,85078	0,77727
48,77	9,994	0,8743	0,80079
50,09	10,082	0,89478	0,82126
51,41	10,253	0,92029	0,84678
52,73	10,237	0,93747	0,86396
54,04	10,616	0,96843	0,89492
55,36	10,385	0,98164	0,90813
56,68	10,562	1,0056	0,93207
58	10,594	1,0255	0,95201
59,32	10,759	1,049	0,97546
60,63	10,797	1,071	0,99744
61,95	10,93	1,0927	1,0192
63,27	10,853	1,1106	1,0371
64,59	11,113	1,1366	1,0631
65,91	11,232	1,16	1,0865
67,23	11,255	1,1805	1,107
68,54	11,32	1,2017	1,1282
69,86	11,361	1,2235	1,15
71,18	11,683	1,2519	1,1784
72,5	11,503	1,2669	1,1934
73,82	11,778	1,2933	1,2198
75,13	11,727	1,3122	1,2387
76,45	11,868	1,3348	1,2613
77,77	11,932	1,358	1,2845
79,09	11,989	1,3781	1,3046
80,41	11,978	1,3991	1,3256
81,73	12,153	1,422	1,3485
83,04	12,109	1,4411	1,3676
84,36	12,31	1,4665	1,393
85,68	12,418	1,489	1,4155
87	12,411	1,5079	1,4344
88,32	12,64	1,5354	1,4619
89,63	12,543	1,5532	1,4797
90,95	12,715	1,5767	1,5032
92,27	12,729	1,5976	1,5241
93,59	12,813	1,6194	1,5459
94,91	12,746	1,6378	1,5643
96,23	12,961	1,6638	1,5903
97,54	12,908	1,6829	1,6093
98,86	13,099	1,7072	1,6337
100,2	13,086	1,7278	1,6543
101,5	13,218	1,7514	1,6779
102,8	13,417	1,7772	1,7037
104,1	13,314	1,7946	1,7211
105,5	13,754	1,8259	1,7523
106,8	13,447	1,8385	1,765
108,1	13,62	1,8621	1,7886
109,4	13,683	1,8838	1,8103
110,7	13,776	1,9056	1,832
112	13,879	1,9297	1,8562
113,4	13,881	1,9494	1,8759
114,7	13,786	1,9682	1,8947
116	13,976	1,992	1,9185
117,3	14,077	2,017	1,9435
118,6	14,131	2,0375	1,964
120	14,34	2,0619	1,9884
121,3	14,247	2,0794	2,0059
122,6	14,699	2,1103	2,0368
123,9	14,402	2,1241	2,0506
125,2	14,556	2,1477	2,0742
126,5	14,564	2,1687	2,0952
127,9	14,613	2,1902	2,1167
129,2	14,813	2,2143	2,1408
130,5	14,798	2,2353	2,1618
131,8	14,708	2,2542	2,1807
133,1	14,929	2,2786	2,2051
134,5	14,945	2,2992	2,2257
135,8	15,068	2,3224	2,2489
137,1	15,204	2,3455	2,272
138,4	15,193	2,3657	2,2922
139,7	15,575	2,3961	2,3225
141	15,291	2,4087	2,3352
142,4	15,411	2,4332	2,3597
143,7	15,454	2,455	2,3815
145	15,502	2,4766	2,4031
146,3	15,694	2,5021	2,4286
147,6	15,63	2,521	2,4475
149	15,52	2,5394	2,4659
150,3	15,751	2,5637	2,4902
151,6	15,771	2,5851	2,5116
152,9	15,929	2,6085	2,535
154,2	16,056	2,6323	2,5588
155,5	15,981	2,6501	2,5766
156,9	16,3	2,6784	2,6049
158,2	16,153	2,6953	2,6218
159,5	16,277	2,7189	2,6454
160,8	16,265	2,7394	2,6659
162,1	16,406	2,7617	2,6882
163,5	16,518	2,7862	2,7127
164,8	16,53	2,8068	2,7333
166,1	16,404	2,8259	2,7524
167,4	16,622	2,8497	2,7762
168,7	16,624	2,8709	2,7974
170	16,745	2,894	2,8205
171,4	16,888	2,9171	2,8436
172,7	16,824	2,9366	2,8631
174	17,288	2,9671	2,8936
175,3	16,945	2,9808	2,9073
176,6	17,149	3,0051	2,9316
178	17,114	3,0254	2,9519
179,3	17,231	3,0487	2,9752
180,6	17,064	3,0653	2,9918
181,9	17,396	3,092	3,0184
183,2	17,279	3,1113	3,0378
184,5	17,482	3,1355	3,062
185,9	17,416	3,1561	3,0826
187,2	17,51	3,1797	3,1061
188,5	17,748	3,2057	3,1322
189,8	17,565	3,2215	3,148
191,1	18,039	3,2525	3,179
192,5	17,751	3,2664	3,1929
193,8	17,913	3,29	3,2165
195,1	17,92	3,311	3,2375
196,4	18,013	3,3331	3,2596
197,7	18,166	3,3574	3,2839
199	18,168	3,3779	3,3044
200,4	18,16	3,3986	3,325
201,7	18,256	3,421	3,3474
203	18,297	3,4429	3,3694
204,3	18,393	3,4653	3,3918
205,6	18,633	3,4916	3,4181
206,9	18,452	3,5074	3,4339
208,3	18,914	3,539	3,4655
209,6	18,635	3,5514	3,4778
210,9	18,824	3,5761	3,5026
212,2	18,834	3,5974	3,5239
213,5	18,924	3,6195	3,546
214,9	19,065	3,6435	3,5699
216,2	19,048	3,663	3,5894
217,5	19,157	3,6861	3,6126
218,8	19,157	3,7063	3,6328
220,1	19,212	3,728	3,6545
221,4	19,279	3,75	3,6765
222,8	19,493	3,7754	3,7019
224,1	19,368	3,7927	3,7191
225,4	19,833	3,8225	3,749
226,7	19,603	3,8375	3,764
228	19,824	3,8623	3,7888
229,4	19,758	3,8814	3,8079
230,7	19,913	3,9041	3,8306
232	19,952	3,9268	3,8533
233,3	19,99	3,9482	3,8747
234,6	20,044	3,9713	3,8978
235,9	20,098	3,9912	3,9177
237,3	20,175	4,0144	3,9409
238,6	20,309	4,0365	3,963
239,9	20,502	4,0607	3,9872
241,2	20,354	4,0784	4,0049
242,5	20,915	4,1105	4,037
243,9	20,536	4,1231	4,0496
245,2	20,665	4,1473	4,0738
246,5	20,777	4,1688	4,0953
247,8	20,729	4,1895	4,116
249,1	20,888	4,2128	4,1393
250,4	20,851	4,2338	4,1603
251,8	20,81	4,2538	4,1802
253,1	20,945	4,2779	4,2044
254,4	21,071	4,3014	4,2279
255,7	21,058	4,3209	4,2474
257	21,318	4,3478	4,2743
258,4	21,07	4,3637	4,2902
259,7	21,527	4,3949	4,3214
261	21,131	4,4089	4,3354
262,3	21,273	4,4332	4,3597
263,6	21,127	4,4527	4,3792
264,9	21,212	4,476	4,4025
266,3	21,273	4,4999	4,4264
267,6	21,091	4,5197	4,4462
268,9	20,818	4,5382	4,4647
270,2	20,868	4,5628	4,4893
271,5	20,226	4,5859	4,5124
272,9	16,862	4,608	4,5344
274,2	14,589	4,6354	4,5619
275,5	13,559	4,6498	4,5762
276,8	13,236	4,6757	4,6022
278,1	12,547	4,6942	4,6207
279,4	12,19	4,7184	4,6449
280,8	11,631	4,7388	4,6653
282,1	11,305	4,7612	4,6877
283,4	11,158	4,7862	4,7127
284,7	10,938	4,8054	4,7319
286	10,629	4,8258	4,7523
287,4	10,618	4,8503	4,7768
288,7	10,306	4,8704	4,7969
290	10,221	4,8928	4,8193
291,3	10,214	4,9194	4,8459
292,6	9,8481	4,9347	4,8612
293,9	10,005	4,9662	4,8927
295,3	9,5896	4,9797	4,9062
296,6	9,3748	5,0035	4,9299
297,9	9,1073	5,0241	4,9506
299,2	8,8967	5,0469	4,9733
300,5	8,7581	5,0697	4,9962
301,9	8,5801	5,0903	5,0168
303,2	8,2917	5,1129	5,0394
304,5	8,0245	5,134	5,0605
305,8	7,4483	5,1565	5,0829
307,1	7,2654	5,1802	5,1067
308,4	6,812	5,204	5,1305
309,8	6,3122	5,2209	5,1474
311,1	6,096	5,2529	5,1794
312,4	5,5863	5,2651	5,1916
313,7	5,4318	5,2894	5,2159
315	5,224	5,3105	5,237
316,4	5,0659	5,3328	5,2592
317,7	4,9374	5,3566	5,2831
319	4,7718	5,3774	5,3039
320,3	4,5104	5,397	5,3235
321,6	4,4337	5,4201	5,3466
322,9	4,2114	5,4454	5,3719
324,3	4,1238	5,4643	5,3908
325,6	3,9812	5,4904	5,4169
326,9	3,7875	5,5064	5,4329
328,2	3,6773	5,5326	5,459
329,5	3,482	5,5507	5,4771
330,9	3,3111	5,5745	5,501
332,2	3,1231	5,5959	5,5224
333,5	2,9976	5,6173	5,5438
334,8	2,8678	5,6426	5,5691
336,1	2,7259	5,6622	5,5887
337,4	2,5412	5,683	5,6095
338,8	2,4619	5,7061	5,6326
340,1	2,3047	5,7286	5,6551
341,4	2,2185	5,75	5,6765
342,7	2,1077	5,7727	5,6992
344	2,0145	5,793	5,7195
345,4	1,9715	5,8239	5,7504
346,7	1,7935	5,8368	5,7633
348	1,7112	5,86	5,7864
349,3	1,6084	5,8815	5,808
350,6	1,5367	5,9031	5,8296
351,9	1,4976	5,9295	5,856
353,3	1,3851	5,9464	5,8729
354,6	1,2833	5,968	5,8945
355,9	1,2569	5,991	5,9175
357,2	1,2081	6,0175	5,944
358,5	1,1468	6,0356	5,9621
359,9	1,1185	6,0591	5,9856
361,2	1,0806	6,0777	6,0042
362,5	1,0952	6,1059	6,0324
363,8	1,0777	6,1223	6,0488
365,1	1,0799	6,1458	6,0723
366,4	1,0779	6,1646	6,0911
367,8	1,127	6,1893	6,1158
369,1	1,138	6,2069	6,1334
370,4	1,2111	6,2335	6,1599
371,7	1,2564	6,2547	6,1812
373	1,3434	6,2769	6,2034
374,4	1,4285	6,3007	6,2272
375,7	1,5007	6,3209	6,2474
377	1,6291	6,347	6,2735
378,3	1,6906	6,3638	6,2903
379,6	1,8587	6,3963	6,3227
380,9	1,8857	6,4083	6,3348
382,3	1,9924	6,4315	6,358
383,6	2,0691	6,4533	6,3798
384,9	2,1504	6,4739	6,4004
386,2	2,2454	6,4983	6,4248
387,5	0,054587	6,5181	6,4445
388,9	0,053674	6,5397	6,4662
390,2	0,05276	6,5628	6,4893
391,5	0,048829	6,5889	6,5153
392,6	0,055876