File: Tests de traction/Fichiers source/04_07_2016/Sample_4_250N.txt
Time (s)	Load (N)	Machine Extension (mm)	Extension from Preload (mm)
0
0,6789	0,1327	0,020273	-0,0020373
1,358	0,27056	0,036247	0,013937
2,037	0,40843	0,044249	0,021938
2,716	0,54629	0,05587	0,03356
3,395	0,68416	0,072224	0,049913
4,074	0,82202	0,079646	0,057336
4,752	0,95989	0,091069	0,068759
5,431	1,0977	0,10209	0,079781
6,11	1,2356	0,11378	0,091469
6,789	1,3735	0,12594	0,10363
7,468	1,5113	0,1364	0,11409
8,147	1,6492	0,14621	0,1239
8,826	1,7871	0,15909	0,13678
9,505	1,9249	0,176	0,15369
10,18	2,0628	0,17606	0,15375
10,86	2,2007	0,19132	0,16901
11,54	2,3385	0,20456	0,18225
12,22	2,4764	0,22409	0,20178
12,9	2,6143	0,22478	0,20247
13,58	2,7521	0,23691	0,21459
14,26	2,89	0,24776	0,22545
14,94	3,0279	0,26128	0,23896
15,62	3,1657	0,27167	0,24936
16,29	3,3036	0,28244	0,26013
16,97	3,4414	0,2944	0,27209
17,65	3,5793	0,30543	0,28312
18,33	3,7172	0,31622	0,29391
19,01	3,855	0,33057	0,30826
19,69	3,9929	0,33864	0,31633
20,37	4,1308	0,35081	0,3285
21,05	4,2686	0,36865	0,34634
21,73	4,4065	0,36815	0,34584
22,4	4,5444	0,38298	0,36067
23,08	4,6822	0,39641	0,37409
23,76	4,8201	0,41319	0,39088
24,44	4,958	0,41854	0,39623
25,12	5,0958	0,42884	0,40653
25,8	5,2337	0,44151	0,4192
26,48	5,3715	0,4556	0,43329
27,16	5,5094	0,46506	0,44275
27,84	5,6473	0,47443	0,45212
28,51	5,7851	0,48719	0,46488
29,19	5,923	0,50511	0,4828
29,87	6,0223	0,50923	0,48692
30,55	6,0442	0,51958	0,49727
31,23	6,066	0,53229	0,50998
31,91	6,0878	0,54441	0,5221
32,59	6,1097	0,55732	0,53501
33,27	6,1315	0,56644	0,54413
33,95	6,1533	0,57752	0,55521
34,63	6,1751	0,58849	0,56618
35,3	6,197	0,6049	0,58259
35,98	6,2188	0,61141	0,5891
36,66	6,2406	0,62148	0,59917
37,34	6,2625	0,63282	0,61051
38,02	6,2843	0,64968	0,62737
38,7	6,3061	0,6575	0,63519
39,38	6,3279	0,66601	0,6437
40,06	6,3498	0,67985	0,65754
40,74	6,3716	0,6979	0,67559
41,41	6,3934	0,69907	0,67676
42,09	6,4152	0,71179	0,68948
42,77	6,4371	0,7241	0,70178
43,45	6,4589	0,73628	0,71397
44,13	6,4807	0,74931	0,727
44,81	6,5026	0,75896	0,73665
45,49	6,5244	0,76963	0,74732
46,17	6,5462	0,7814	0,75909
46,85	6,568	0,79338	0,77107
47,52	6,5899	0,80423	0,78192
48,2	6,6117	0,81485	0,79254
48,88	6,6335	0,82681	0,8045
49,56	6,6553	0,84091	0,8186
50,24	6,6772	0,85219	0,82988
50,92	6,699	0,85824	0,83593
51,6	6,7208	0,872	0,84969
52,28	6,7427	0,89049	0,86818
52,96	6,7645	0,89079	0,86848
53,64	6,7863	0,90474	0,88243
54,31	6,8081	0,91703	0,89472
54,99	6,83	0,93475	0,91244
55,67	6,8518	0,93888	0,91657
56,35	6,8736	0,9504	0,92809
57,03	6,8954	0,96164	0,93933
57,71	6,9173	0,97422	0,95191
58,39	6,9391	0,98624	0,96393
59,07	6,9609	0,9959	0,97359
59,75	6,9828	1,0072	0,98484
60,42	7,0046	1,0182	0,9959
61,1	7,0264	1,0356	1,0132
61,78	7,0482	1,0357	1,0134
62,46	7,0701	1,0519	1,0296
63,14	7,0919	1,0643	1,042
63,82	7,1137	1,0805	1,0581
64,5	7,1355	1,0884	1,0661
65,18	7,1574	1,0962	1,0739
65,86	7,1792	1,1085	1,0862
66,53	7,201	1,1272	1,1049
67,21	7,2229	1,1284	1,1061
67,89	7,2447	1,1413	1,119
68,57	7,2665	1,1549	1,1326
69,25	7,2883	1,168	1,1457
69,93	7,3102	1,1756	1,1533
70,61	7,332	1,1874	1,1651
71,29	7,3538	1,1996	1,1773
71,97	7,3757	1,2129	1,1906
72,65	7,3975	1,2225	1,2002
73,32	7,4193	1,2346	1,2123
74	7,4411	1,2442	1,2219
74,68	7,463	1,2568	1,2344
75,36	7,4848	1,2663	1,244
76,04	7,5066	1,2808	1,2585
76,72	7,5284	1,2889	1,2666
77,4	7,5503	1,3014	1,2791
78,08	7,5721	1,3189	1,2966
78,76	7,5939	1,319	1,2967
79,43	7,6158	1,3342	1,3119
80,11	7,6376	1,3469	1,3246
80,79	7,6594	1,3645	1,3422
81,47	7,6812	1,3671	1,3448
82,15	7,7031	1,3799	1,3575
82,83	7,7249	1,3915	1,3692
83,51	7,7467	1,4049	1,3826
84,19	7,7685	1,4123	1,39
84,87	7,7904	1,4254	1,4031
85,54	7,8122	1,4371	1,4148
86,22	7,834	1,4492	1,4269
86,9	7,8559	1,4616	1,4393
87,58	7,8777	1,4737	1,4514
88,26	7,8995	1,4811	1,4588
88,94	7,9213	1,4935	1,4712
89,62	7,9432	1,5054	1,4831
90,3	7,965	1,5195	1,4971
90,98	7,9868	1,5267	1,5044
91,66	8,0086	1,5392	1,5169
92,33	8,0305	1,5546	1,5323
93,01	8,0523	1,5642	1,5419
93,69	8,0741	1,5711	1,5488
94,37	8,096	1,5847	1,5624
95,05	8,1178	1,6048	1,5825
95,73	8,1396	1,6049	1,5826
96,41	8,1614	1,6177	1,5954
97,09	8,1833	1,6299	1,6076
97,77	8,2051	1,642	1,6197
98,44	8,2269	1,6528	1,6305
99,12	8,2487	1,6625	1,6402
99,8	8,2706	1,6752	1,6528
100,5	8,2924	1,6867	1,6644
101,2	8,3142	1,6996	1,6773
101,8	8,3361	1,7099	1,6876
102,5	8,3579	1,7202	1,6978
103,2	8,3797	1,7316	1,7093
103,9	8,4015	1,7477	1,7254
104,6	8,4234	1,7475	1,7252
105,2	8,4452	1,7635	1,7412
105,9	8,467	1,7771	1,7547
106,6	8,4888	1,7969	1,7746
107,3	8,5107	1,7956	1,7733
107,9	8,5325	1,8097	1,7873
108,6	8,5543	1,8226	1,8002
109,3	8,5762	1,84	1,8177
110	8,5666	1,842	1,8197
110,7	8,4712	1,8543	1,832
111,3	8,3757	1,8664	1,8441
112	8,2802	1,8794	1,8571
112,7	8,1848	1,8901	1,8678
113,4	8,0893	1,9013	1,879
114,1	7,9939	1,9125	1,8902
114,7	7,8984	1,9244	1,9021
115,4	7,8029	1,9374	1,9151
116,1	7,7075	1,9482	1,9259
116,8	7,612	1,9576	1,9352
117,5	7,5166	1,9693	1,947
118,1	7,4211	1,9843	1,962
118,8	7,3257	1,9925	1,9702
119,5	7,2302	2,0013	1,979
120,2	7,1347	2,0151	1,9928
120,8	7,0393	2,0343	2,012
121,5	6,9438	2,0343	2,012
122,2	6,8484	2,0481	2,0258
122,9	6,7529	2,0596	2,0373
123,6	6,6574	2,0816	2,0593
124,2	6,562	2,0811	2,0588
124,9	6,4665	2,093	2,0707
125,6	6,3711	2,1048	2,0825
126,3	6,2756	2,1167	2,0944
127	6,1801	2,126	2,1037
127,6	6,0847	2,1388	2,1165
128,3	5,9892	2,1503	2,128
129	5,8938	2,1613	2,139
129,7	5,7983	2,174	2,1517
130,4	5,7029	2,1862	2,1639
131	5,6074	2,1946	2,1723
131,7	5,5119	2,2072	2,1849
132,4	5,4165	2,2221	2,1998
133,1	5,321	2,2323	2,21
133,7	5,2256	2,2393	2,217
134,4	5,1301	2,2514	2,2291
135,1	5,0346	2,2679	2,2456
135,8	4,9392	2,276	2,2537
136,5	4,8437	2,2842	2,2619
137,1	4,7483	2,2977	2,2754
137,8	4,6528	2,3098	2,2875
138,5	4,5574	2,3205	2,2982
139,2	4,4619	2,331	2,3087
139,9	4,3664	2,3426	2,3203
140,5	4,271	2,3546	2,3322
141,2	4,1883	2,3669	2,3446
141,9	4,1085	2,3768	2,3545
142,6	4,0286	2,3868	2,3645
143,3	3,9487	2,3994	2,3771
143,9	3,8688	2,4139	2,3915
144,6	3,7889	2,4204	2,3981
145,3	3,7091	2,4325	2,4102
146	3,6292	2,4448	2,4225
146,6	3,5493	2,4614	2,4391
147,3	3,4694	2,4652	2,4429
148	3,3896	2,4768	2,4545
148,7	3,3097	2,4896	2,4673
149,4	3,2298	2,5078	2,4855
150	3,1499	2,5085	2,4862
150,7	3,07	2,5229	2,5006
151,4	2,9902	2,5339	2,5116
152,1	2,9103	2,5478	2,5255
152,8	2,8304	2,5557	2,5334
153,4	2,7505	2,5673	2,545
154,1	2,6707	2,5805	2,5582
154,8	2,5908	2,5922	2,5699
155,5	2,5109	2,6065	2,5842
156,2	2,431	2,6144	2,5921
156,8	2,3511	2,6242	2,6019
157,5	2,2713	2,6361	2,6138
158,2	2,1914	2,6537	2,6313
158,9	2,1115	2,6534	2,631
159,5	2,0316	2,6691	2,6468
160,2	1,9518	2,682	2,6597
160,9	1,8719	2,6996	2,6773
161,6	1,792	2,7013	2,679
162,3	1,7121	2,7144	2,6921
162,9	1,6322	2,7273	2,705
163,6	1,5524	2,7495	2,7272
164,3	1,4725	2,7479	2,7256
165	1,3926	2,76	2,7377
165,7	1,3127	2,773	2,7507
166,3	1,2329	2,7849	2,7626
167	1,153	2,7936	2,7713
167,7	1,0731	2,8048	2,7825
168,4	0,99323	2,8179	2,7956
169,1	0,93976	2,8296	2,8073
169,7	0,91652	2,8428	2,8205
170,4	0,89327	2,8529	2,8306
171,1	0,87002	2,8631	2,8408
171,8	0,84678	2,874	2,8517
172,4	0,82353	2,887	2,8646
173,1	0,80029	2,8993	2,877
173,8	0,77704	2,9067	2,8844
174,5	0,7538	2,9194	2,8971
175,2	0,73055	2,939	2,9166
175,8	0,7073	2,939	2,9167
176,5	0,68406	2,952	2,9297
177,2	0,66081	2,9656	2,9433
177,9	0,63757	2,9781	2,9558
178,6	0,61432	2,9867	2,9644
179,2	0,59108	2,9974	2,9751
179,9	0,56783	3,0105	2,9882
180,6	0,54458	3,0268	3,0045
181,3	0,52134	3,0324	3,0101
182	0,49809	3,0448	3,0225
182,6	0,47485	3,0559	3,0336
183,3	0,4516	3,0674	3,0451
184	0,42836	3,0785	3,0562
184,7	0,40511	3,0901	3,0677
185,3	0,38187	3,0999	3,0776
186	0,35862	3,112	3,0897
186,7	0,33537	3,1247	3,1024
187,4	0,31213	3,1354	3,1131
188,1	0,28888	3,1446	3,1223
188,7	0,26564	3,1579	3,1356
189,4	0,24239	3,1763	3,154
190,1	0,21915	3,1769	3,1546
190,8	0,1959	3,1905	3,1682
191,5	0,17265	3,2027	3,1804
192,1	0,14941	3,2205	3,1982
192,8	0,12616	3,2234	3,2011
193,5	0,10292	3,2352	3,2129
194,2	0,079671	3,2471	3,2248
194,9	0,056426	3,2595	3,2372
195,5	0,03318	3,2689	3,2466
196,2	0,0099342	3,2819	3,2596
196,9	-0,013312	3,2927	3,2704
197,6	-0,036557	3,3057	3,2834
198,2	-0,059803	3,3197	3,2974
198,9	-0,083049	3,328	3,3057
199,6	-0,10629	3,3367	3,3144
200,3	-0,12954	3,3496	3,3273
201	-0,15279	3,3619	3,3395
201,6	-0,17603	3,3738	3,3515
202,2	-0,1959