File: Tests de traction/Fichiers source/04_07_2016/Sample_1_250N.txt
Time (s)	Load (N)	Machine Extension (mm)
0
0,1732	0,40509	0,000067737
0,3463	0,81239	0,00013704
0,5195	1,2197	0,04323
0,6927	1,627	0,10367
0,8658	2,0343	0,17502
1,039	2,4416	0,23141
1,212	2,8489	0,28591
1,385	3,2562	0,34284
1,559	3,6635	0,41408
1,732	4,0708	0,4736
1,905	4,4781	0,5329
2,078	4,4376	0,59351
2,251	4,209	0,65413
2,424	3,9805	0,71475
2,598	3,752	0,77537
2,771	3,5235	0,83598
2,944	3,2949	0,8966
3,117	3,0664	0,95722
3,29	2,8379	1,0178
3,463	2,6093	1,0785
3,637	2,3808	1,1391
3,81	2,1523	1,1997
3,983	1,9238	1,2603
4,156	1,6952	1,3209
4,329	1,4667	1,3815
4,502	1,2382	1,4422
4,676	1,2505	1,5028
4,849	1,2945	1,5634
5,022	1,3384	1,624
5,195	1,3824	1,6846
5,368	1,4263	1,7453
5,541	1,4703	1,8059
5,715	1,5142	1,8665
5,888	1,5582	1,9271
6,061	1,6021	1,9877
6,234	1,6461	2,0483
6,407	1,69	2,109
6,58	1,7339	2,1696
6,754	1,7337	2,2302
6,927	1,7257	2,2908
7,1	1,7176	2,3514
7,273	1,7096	2,412
7,446	1,7015	2,4727
7,619	1,6935	2,5333
7,793	1,6854	2,5939
7,966	1,6774	2,6545
8,139	1,6694	2,7151
8,312	1,6613	2,7758
8,485	1,6533	2,8364
8,658	1,6452	2,897
8,832	1,6372	2,9576
9,005	1,6291	3,0182
9,178	1,6211	3,0788
9,351	1,613	3,1395
9,524	1,605	3,2001
9,697	1,5969	3,2607
9,871	1,5889	3,3213
10,04	1,5808	3,3819
10,22	1,5728	3,4426
10,39	1,5648	3,5032
10,56	1,5567	3,5638
10,74	1,5487	3,6244
10,91	1,5406	3,685
11,08	1,5326	3,7456
11,26	1,5245	3,8063
11,43	1,5165	3,8669
11,6	1,5084	3,9275
11,78	1,5004	3,9881
11,95	1,4923	4,0487
12,12	1,4843	4,1093
12,29	1,4762	4,17
12,47	1,4682	4,2306
12,64	1,4602	4,2912
12,81	1,4521	4,3518
12,99	1,4441	4,4124
13,16	1,436	4,4731
13,33	1,428	4,5337
13,51	1,4199	4,5943
13,68	1,4119	4,6549
13,85	1,4038	4,7155
14,03	1,3958	4,7761
14,2	1,3877	4,8368
14,37	1,3797	4,8974
14,55	1,3716	4,958
14,72	1,3636	5,0186
14,89	1,3556	5,0792
15,07	1,3475	5,1398
15,24	1,3395	5,2005
15,41	1,3314	5,2611
15,59	1,3234	5,3217
15,76	1,3153	5,3823
15,93	1,3073	5,4429
16,1	1,2992	5,5036
16,28	1,2912	5,5642
16,45	1,2831	5,6248
16,62	1,2751	5,6854
16,8	1,267	5,746
16,97	1,259	5,8066
17,14	1,251	5,8673
17,32	1,2429	5,9279
17,49	1,2349	5,9885
17,66	1,2268	6,0491
17,84	1,2188	6,1097
18,01	1,2107	6,1704
18,18	1,2027	6,231
18,36	1,1946	6,2916
18,53	1,1866	6,3522
18,7	1,1785	6,4128
18,88	1,1705	6,4734
19,05	1,1625	6,5341
19,22	1,1544	6,5947
19,39	1,1464	6,6553
19,57	1,1383	6,7159
19,74	1,1303	6,7765
19,91	1,1222	6,8371
20,09	1,1142	6,8978
20,26	1,1061	6,9584
20,43	1,0981	7,019
20,61	1,09	7,0796
20,78	1,082	7,1402
20,95	1,0739	7,2009
21,13	1,0659	7,2615
21,3	1,0579	7,3221
21,47	1,0498	7,3827
21,65	1,0418	7,4433
21,82	1,0337	7,5039
21,99	1,0257	7,5646
22,17	1,0176	7,6252
22,34	1,0096	7,6858
22,51	1,0015	7,7464
22,69	0,99348	7,807
22,86	0,98544	7,8677
23,03	0,97739	7,9283
23,2	0,96934	7,9889
23,38	0,9613	8,0495
23,55	0,95325	8,1101
23,72	0,94521	8,1707
23,9	0,93716	8,2314
24,07	0,92911	8,292
24,24	0,92107	8,3526
24,42	0,91302	8,4132
24,59	0,90498	8,4738
24,76	0,89693	8,5344
24,94	0,88888	8,5951
25,11	0,88084	8,6557
25,28	0,87279	8,7163
25,46	0,86475	8,7769
25,63	0,8567	8,8375
25,8	0,84865	8,8982
25,98	0,84061	8,9588
26,15	0,83256	9,0194
26,32	0,82452	9,08
26,49	0,81647	9,1406
26,67	0,80842	9,2012
26,84	0,80038	9,2619
27,01	0,79233	9,3225
27,19	0,78429	9,3831
27,36	0,77624	9,4437
27,53	0,76819	9,5043
27,71	0,76015	9,5649
27,88	0,7521	9,6256
28,05	0,74406	9,6862
28,23	0,73601	9,7468
28,4	0,72796	9,8074
28,57	0,71992	9,868
28,75	0,71187	9,9287
28,92	0,70383	9,9893
29,09	0,69578	10,05
29,27	0,68773	10,111
29,44	0,67969	10,171
29,61	0,67164	10,232
29,79	0,6636	10,293
29,96	0,65555	10,353
30,13	0,6475	10,414
30,3	0,63946	10,475
30,48	0,63141	10,536
30,65	0,62337	10,596
30,82	0,61532	10,657
31	0,60727	10,718
31,17	0,59923	10,778
31,34	0,59118	10,839
31,52	0,58313	10,9
31,69	0,57509	10,961
31,86	0,56704	11,021
32,04	0,559	11,082
32,21	0,55095	11,143
32,38	0,5429	11,204
32,56	0,53486	11,264
32,73	0,52681	11,325
32,9	0,51877	11,386
33,08	0,51072	11,446
33,25	0,50267	11,507
33,42	0,49463	11,568
33,59	0,48658	11,629
33,77	0,47854	11,689
33,94	0,47049	11,75
34,11	0,46244	11,811
34,29	0,4544	11,872
34,46	0,44635	11,932
34,63	0,43831	11,993
34,81	0,43026	12,054
34,98	0,42221	12,114
35,15	0,41417	12,175
35,33	0,40612	12,236
35,5	0,39808	12,297
35,67	0,39003	12,357
35,85	0,38198	12,418
36,02	0,37394	12,479
36,19	0,36589	12,54
36,37	0,35785	12,601
36,54	0,3498	12,662
36,71	0,34175	12,723
36,88	0,33371	12,785
37,06	0,32566	12,846
37,23	0,31762	12,907
37,4	0,30957	12,968
37,58	0,30152	13,029
37,75	0,29348	13,09
37,92	0,28543	13,15
38,1	0,27739	13,211
38,27	0,26934	13,272
38,44	0,26129	13,332
38,62	0,25325	13,393
38,79	0,2452	13,453
38,96	0,23715	13,514
39,14	0,22911	13,575
39,31	0,22106	13,635
39,48	0,21302	13,696
39,66	0,20497	13,757
39,83	0,19692	13,817
40	0,18888	13,878
40,18	0,18083	13,938
40,35	0,17279	13,999
40,52	0,16474	14,06
40,69	0,15669	14,12
40,87	0,14865	14,181
41,04	0,1406	14,242
41,21	0,13256	14,302
41,39	0,12451	14,363
41,56	0,11646	14,423
41,73	0,10842	14,484
41,91	0,10037	14,545
42,08	0,092326	14,605
42,25	0,08428	14,666
42,43	0,076234	14,727
42,6	0,068188	14,787
42,77	0,060142	14,848
42,95	0,052096	14,908
43,12	0,04405	14,969
43,29	0,036004	15,03
43,47	0,027958	15,09
43,64	0,019912	15,151
43,81	0,011866	15,212
43,98	0,0038196	15,272
44,16	-0,0042265	15,333
44,33	-0,012272	15,393
44,5	-0,020319	15,454
44,68	-0,028365	15,515
44,85	-0,036411	15,575
45,02	-0,044457	15,636
45,2	-0,052503	15,697
45,37	-0,060549	15,757
45,54	-0,068595	15,818
45,72	-0,076641	15,878
45,89	-0,084687	15,939
46,06	-0,092733	16
46,24	-0,10078	16,06
46,41	-0,10883	16,121
46,58	-0,11687	16,182
46,76	-0,12492	16,242
46,93	-0,13296	16,303
47,1	-0,14101	16,364
47,28	-0,14906	16,424
47,45	-0,1571	16,485
47,62	-0,16515	16,545
47,79	-0,17319	16,606
47,97	-0,18124	16,667
48,14	-0,18929	16,727
48,31	-0,19733	16,788
48,49	-0,20538	16,849
48,66	-0,21342	16,909
48,83	-0,22147	16,97
49,01	-0,22952	17,03
49,18	-0,23756	17,091
49,35	-0,24561	17,152
49,53	-0,25365	17,212
49,7	-0,2617	17,273
49,87	-0,26975	17,334
50,05	-0,27779	17,394
50,22	-0,28584	17,455
50,39	-0,29388	17,515
50,57	-0,30193	17,576
50,74	-0,30998	17,637
50,91	-0,31802	17,697
51,08	-0,32607	17,758
51,26	-0,33411	17,819
51,43	-0,34216	17,879
51,58		17,931